# Long-range Heisenberg model
# L = 18, J = 1.0, Delta = 0.50, Alpha = 2.5
# Integrated spin conductivity I(omega)
# omega, I(omega)

0.0000000000000000 0.00401003
9.99999999999999955E-007 0.00475674
1.99999999999999991E-006 0.00514336
3.00000000000000008E-006 0.00612626
3.99999999999999982E-006 0.00700446
5.00000000000000041E-006 0.00781277
6.00000000000000015E-006 0.00924028
6.99999999999999989E-006 0.0118172
7.99999999999999964E-006 0.0145496
9.00000000000000023E-006 0.0155999
1.00000000000000008E-005 0.0167923
1.09999999999999997E-005 0.0176937
1.20000000000000003E-005 0.0187489
1.29999999999999992E-005 0.0203846
1.39999999999999998E-005 0.0219045
1.50000000000000004E-005 0.0227004
1.59999999999999993E-005 0.0230406
1.69999999999999999E-005 0.0239055
1.80000000000000005E-005 0.0263781
1.90000000000000010E-005 0.0276722
2.00000000000000016E-005 0.0294144
2.09999999999999988E-005 0.0298121
2.19999999999999994E-005 0.0301591
2.30000000000000000E-005 0.0310017
2.40000000000000006E-005 0.0316344
2.50000000000000012E-005 0.0334974
2.59999999999999984E-005 0.0358269
2.69999999999999990E-005 0.0374551
2.79999999999999996E-005 0.0385154
2.90000000000000002E-005 0.0390754
3.00000000000000008E-005 0.0401466
3.10000000000000014E-005 0.0412182
3.19999999999999986E-005 0.0419824
3.30000000000000025E-005 0.0438398
3.39999999999999997E-005 0.0460951
3.49999999999999969E-005 0.04797
3.60000000000000009E-005 0.0489341
3.69999999999999981E-005 0.0500095
3.80000000000000021E-005 0.0501485
3.89999999999999993E-005 0.0517146
4.00000000000000033E-005 0.0532508
4.10000000000000005E-005 0.0542574
4.19999999999999977E-005 0.0557235
4.30000000000000017E-005 0.0567276
4.39999999999999989E-005 0.0573544
4.50000000000000028E-005 0.0582183
4.60000000000000000E-005 0.0591501
4.69999999999999972E-005 0.059773
4.80000000000000012E-005 0.0613802
4.89999999999999984E-005 0.0633767
5.00000000000000024E-005 0.065095
5.09999999999999996E-005 0.0654575
5.19999999999999968E-005 0.0672299
5.30000000000000008E-005 0.0677298
5.39999999999999980E-005 0.0688198
5.50000000000000020E-005 0.0706653
5.59999999999999992E-005 0.0719326
5.70000000000000031E-005 0.0732965
5.80000000000000003E-005 0.0746188
5.89999999999999975E-005 0.0757109
6.00000000000000015E-005 0.0768721
6.09999999999999987E-005 0.0777071
6.20000000000000027E-005 0.0791081
6.29999999999999999E-005 0.0798867
6.39999999999999971E-005 0.0810575
6.49999999999999943E-005 0.0822213
6.60000000000000051E-005 0.0836648
6.70000000000000023E-005 0.0853527
6.79999999999999995E-005 0.0864153
6.89999999999999967E-005 0.0879476
6.99999999999999939E-005 0.0880381
7.10000000000000046E-005 0.0898353
7.20000000000000018E-005 0.0904427
7.29999999999999990E-005 0.0912629
7.39999999999999962E-005 0.0913731
7.49999999999999934E-005 0.0923988
7.60000000000000042E-005 0.0930485
7.70000000000000014E-005 0.0939043
7.79999999999999986E-005 0.0950624
7.89999999999999958E-005 0.0964012
8.00000000000000065E-005 0.0981231
8.10000000000000037E-005 0.0983828
8.20000000000000009E-005 0.0991368
8.29999999999999981E-005 0.0996514
8.39999999999999954E-005 0.100283
8.50000000000000061E-005 0.10182
8.60000000000000033E-005 0.102239
8.70000000000000005E-005 0.103074
8.79999999999999977E-005 0.103861
8.89999999999999949E-005 0.104686
9.00000000000000057E-005 0.105122
9.10000000000000029E-005 0.105584
9.20000000000000001E-005 0.106314
9.29999999999999973E-005 0.107548
9.39999999999999945E-005 0.109192
9.50000000000000052E-005 0.109424
9.60000000000000024E-005 0.110177
9.69999999999999996E-005 0.111099
9.79999999999999968E-005 0.11137
9.89999999999999940E-005 0.111517
1.00000000000000005E-004 0.111609
1.10000000000000004E-004 0.118256
1.20000000000000003E-004 0.128126
1.29999999999999989E-004 0.135188
1.39999999999999988E-004 0.142594
1.49999999999999987E-004 0.150073
1.60000000000000013E-004 0.158176
1.70000000000000012E-004 0.166912
1.80000000000000011E-004 0.174265
1.90000000000000010E-004 0.180619
2.00000000000000010E-004 0.186406
2.10000000000000009E-004 0.192662
2.20000000000000008E-004 0.199351
2.30000000000000007E-004 0.204125
2.40000000000000006E-004 0.209544
2.50000000000000005E-004 0.21634
2.59999999999999977E-004 0.221933
2.70000000000000003E-004 0.229003
2.79999999999999975E-004 0.235376
2.90000000000000002E-004 0.242024
2.99999999999999974E-004 0.247115
3.10000000000000000E-004 0.252674
3.20000000000000026E-004 0.25906
3.29999999999999998E-004 0.264528
3.40000000000000024E-004 0.268445
3.49999999999999996E-004 0.274691
3.60000000000000023E-004 0.278742
3.69999999999999995E-004 0.283204
3.80000000000000021E-004 0.288069
3.89999999999999993E-004 0.291642
4.00000000000000019E-004 0.296154
4.09999999999999991E-004 0.300556
4.20000000000000017E-004 0.304684
4.29999999999999989E-004 0.308231
4.40000000000000016E-004 0.312457
4.49999999999999988E-004 0.315477
4.60000000000000014E-004 0.318988
4.69999999999999986E-004 0.322868
4.80000000000000012E-004 0.327268
4.89999999999999984E-004 0.331362
5.00000000000000010E-004 0.334787
5.10000000000000037E-004 0.338296
5.19999999999999954E-004 0.342205
5.29999999999999981E-004 0.345439
5.40000000000000007E-004 0.348822
5.50000000000000033E-004 0.352309
5.59999999999999951E-004 0.355017
5.69999999999999977E-004 0.358883
5.80000000000000003E-004 0.362266
5.90000000000000030E-004 0.365632
5.99999999999999947E-004 0.369136
6.09999999999999974E-004 0.372058
6.20000000000000000E-004 0.375126
6.30000000000000026E-004 0.378375
6.40000000000000052E-004 0.38168
6.49999999999999970E-004 0.385068
6.59999999999999996E-004 0.389294
6.70000000000000023E-004 0.392405
6.80000000000000049E-004 0.395142
6.89999999999999967E-004 0.396856
6.99999999999999993E-004 0.400986
7.10000000000000019E-004 0.403682
7.20000000000000045E-004 0.406127
7.29999999999999963E-004 0.409521
7.39999999999999989E-004 0.411985
7.50000000000000016E-004 0.413983
7.60000000000000042E-004 0.415821
7.69999999999999960E-004 0.417554
7.79999999999999986E-004 0.419476
7.90000000000000012E-004 0.421359
8.00000000000000038E-004 0.423542
8.09999999999999956E-004 0.427054
8.19999999999999982E-004 0.429958
8.30000000000000009E-004 0.433026
8.40000000000000035E-004 0.435485
8.49999999999999953E-004 0.437926
8.59999999999999979E-004 0.439864
8.70000000000000005E-004 0.442246
8.80000000000000031E-004 0.444874
8.89999999999999949E-004 0.447514
8.99999999999999975E-004 0.449901
9.10000000000000002E-004 0.452667
9.20000000000000028E-004 0.455378
9.30000000000000054E-004 0.458274
9.39999999999999972E-004 0.460205
9.49999999999999998E-004 0.463023
9.60000000000000024E-004 0.465379
9.70000000000000051E-004 0.467066
9.79999999999999968E-004 0.469094
9.89999999999999995E-004 0.471501
1.00000000000000002E-003 0.473561
1.10000000000000007E-003 0.493561
1.19999999999999989E-003 0.512696
1.29999999999999994E-003 0.530629
1.39999999999999999E-003 0.546893
1.50000000000000003E-003 0.562609
1.60000000000000008E-003 0.577303
1.69999999999999991E-003 0.589033
1.79999999999999995E-003 0.601181
1.90000000000000000E-003 0.612308
2.00000000000000004E-003 0.621982
2.09999999999999987E-003 0.631038
2.20000000000000013E-003 0.639327
2.29999999999999996E-003 0.649255
2.39999999999999979E-003 0.657443
2.50000000000000005E-003 0.664807
2.59999999999999988E-003 0.671402
2.70000000000000014E-003 0.678208
2.79999999999999997E-003 0.684496
2.89999999999999980E-003 0.690337
3.00000000000000006E-003 0.69648
3.09999999999999989E-003 0.702189
3.20000000000000015E-003 0.707436
3.29999999999999998E-003 0.712565
3.39999999999999981E-003 0.717375
3.50000000000000007E-003 0.721798
3.59999999999999990E-003 0.727013
3.70000000000000016E-003 0.73032
3.79999999999999999E-003 0.734446
3.89999999999999982E-003 0.738232
4.00000000000000008E-003 0.741985
4.10000000000000035E-003 0.746338
4.19999999999999974E-003 0.749842
4.30000000000000000E-003 0.753353
4.40000000000000027E-003 0.756613
4.49999999999999966E-003 0.75969
4.59999999999999992E-003 0.762262
4.70000000000000018E-003 0.765504
4.79999999999999958E-003 0.768093
4.89999999999999984E-003 0.770594
5.00000000000000010E-003 0.773038
5.10000000000000037E-003 0.775485
5.19999999999999976E-003 0.777891
5.30000000000000002E-003 0.780206
5.40000000000000029E-003 0.782524
5.49999999999999968E-003 0.785118
5.59999999999999994E-003 0.78767
5.70000000000000021E-003 0.789677
5.79999999999999960E-003 0.791945
5.89999999999999986E-003 0.793893
6.00000000000000012E-003 0.796004
6.10000000000000039E-003 0.797966
6.19999999999999978E-003 0.800094
6.30000000000000004E-003 0.801592
6.40000000000000031E-003 0.803646
6.49999999999999970E-003 0.805176
6.59999999999999996E-003 0.806948
6.70000000000000023E-003 0.808569
6.79999999999999962E-003 0.810007
6.89999999999999988E-003 0.811546
7.00000000000000015E-003 0.813272
7.10000000000000041E-003 0.814669
7.19999999999999980E-003 0.816199
7.30000000000000007E-003 0.817678
7.40000000000000033E-003 0.819115
7.49999999999999972E-003 0.820512
7.59999999999999998E-003 0.821898
7.70000000000000025E-003 0.823272
7.79999999999999964E-003 0.824539
7.90000000000000077E-003 0.825691
8.00000000000000017E-003 0.827148
8.09999999999999956E-003 0.828278
8.20000000000000069E-003 0.829502
8.30000000000000009E-003 0.830599
8.39999999999999948E-003 0.831991
8.50000000000000061E-003 0.833204
8.60000000000000001E-003 0.834343
8.69999999999999940E-003 0.83539
8.80000000000000053E-003 0.836487
8.89999999999999993E-003 0.837381
8.99999999999999932E-003 0.838616
9.10000000000000045E-003 0.83969
9.19999999999999984E-003 0.840778
9.29999999999999924E-003 0.841988
9.40000000000000037E-003 0.842832
9.49999999999999976E-003 0.843902
9.59999999999999916E-003 0.844767
9.70000000000000029E-003 0.845706
9.79999999999999968E-003 0.846583
9.90000000000000081E-003 0.847504
1.00000000000000002E-002 0.848165
1.09999999999999994E-002 0.855975
1.20000000000000002E-002 0.863343
1.29999999999999994E-002 0.869454
1.40000000000000003E-002 0.875073
1.49999999999999994E-002 0.880319
1.60000000000000003E-002 0.884769
1.70000000000000012E-002 0.888884
1.79999999999999986E-002 0.892797
1.89999999999999995E-002 0.896122
2.00000000000000004E-002 0.899446
2.10000000000000013E-002 0.90241
2.19999999999999987E-002 0.905046
2.29999999999999996E-002 0.907636
2.40000000000000005E-002 0.90994
2.50000000000000014E-002 0.912332
2.59999999999999988E-002 0.914476
2.69999999999999997E-002 0.916609
2.80000000000000006E-002 0.918646
2.90000000000000015E-002 0.92044
2.99999999999999989E-002 0.922218
3.09999999999999998E-002 0.923968
3.20000000000000007E-002 0.92559
3.30000000000000016E-002 0.927191
3.40000000000000024E-002 0.928833
3.50000000000000033E-002 0.930192
3.59999999999999973E-002 0.93153
3.69999999999999982E-002 0.932776
3.79999999999999991E-002 0.934021
3.89999999999999999E-002 0.935085
4.00000000000000008E-002 0.936025
4.10000000000000017E-002 0.936905
4.20000000000000026E-002 0.937862
4.29999999999999966E-002 0.938821
4.39999999999999974E-002 0.939729
4.49999999999999983E-002 0.940441
4.59999999999999992E-002 0.941129
4.70000000000000001E-002 0.941818
4.80000000000000010E-002 0.942512
4.90000000000000019E-002 0.943122
5.00000000000000028E-002 0.943729
5.09999999999999967E-002 0.944284
5.19999999999999976E-002 0.944887
5.29999999999999985E-002 0.94544
5.39999999999999994E-002 0.945983
5.50000000000000003E-002 0.946555
5.60000000000000012E-002 0.947096
5.70000000000000021E-002 0.947626
5.80000000000000029E-002 0.948124
5.89999999999999969E-002 0.948589
5.99999999999999978E-002 0.949038
6.09999999999999987E-002 0.949511
6.19999999999999996E-002 0.949979
6.30000000000000004E-002 0.950457
6.40000000000000013E-002 0.95086
6.50000000000000022E-002 0.951224
6.60000000000000031E-002 0.951579
6.70000000000000040E-002 0.951916
6.80000000000000049E-002 0.952256
6.90000000000000058E-002 0.952598
7.00000000000000067E-002 0.952927
7.09999999999999937E-002 0.95323
7.19999999999999946E-002 0.953511
7.29999999999999954E-002 0.953791
7.39999999999999963E-002 0.954061
7.49999999999999972E-002 0.954317
7.59999999999999981E-002 0.954557
7.69999999999999990E-002 0.954783
7.79999999999999999E-002 0.955033
7.90000000000000008E-002 0.95525
8.00000000000000017E-002 0.955449
8.10000000000000026E-002 0.955655
8.20000000000000034E-002 0.955862
8.30000000000000043E-002 0.956066
8.40000000000000052E-002 0.956277
8.50000000000000061E-002 0.956488
8.59999999999999931E-002 0.956681
8.69999999999999940E-002 0.956883
8.79999999999999949E-002 0.957048
8.89999999999999958E-002 0.957242
8.99999999999999967E-002 0.957416
9.09999999999999976E-002 0.957612
9.19999999999999984E-002 0.957765
9.29999999999999993E-002 0.957928
9.40000000000000002E-002 0.958099
9.50000000000000011E-002 0.958239
9.60000000000000020E-002 0.958399
9.70000000000000029E-002 0.958544
9.80000000000000038E-002 0.958685
9.90000000000000047E-002 0.958832
0.10000000000000001 0.958991
0.11000000000000000 0.960262
0.12000000000000000 0.961432
0.13000000000000000 0.96239
0.14000000000000001 0.963176
0.14999999999999999 0.963893
0.16000000000000000 0.964519
0.17000000000000001 0.96508
0.17999999999999999 0.965641
0.19000000000000000 0.966167
0.20000000000000001 0.966685
0.20999999999999999 0.967208
0.22000000000000000 0.967737
0.23000000000000001 0.968223
0.23999999999999999 0.968695
0.25000000000000000 0.969114
0.26000000000000001 0.969531
0.27000000000000002 0.969953
0.28000000000000003 0.970409
0.28999999999999998 0.970865
0.29999999999999999 0.971317
0.31000000000000000 0.971775
0.32000000000000001 0.972206
0.33000000000000002 0.972642
0.34000000000000002 0.973067
0.34999999999999998 0.973484
0.35999999999999999 0.973934
0.37000000000000000 0.974393
0.38000000000000000 0.974801
0.39000000000000001 0.97521
0.40000000000000002 0.975655
0.40999999999999998 0.976093
0.41999999999999998 0.976533
0.42999999999999999 0.97699
0.44000000000000000 0.97743
0.45000000000000001 0.977864
0.46000000000000002 0.978293
0.46999999999999997 0.978733
0.47999999999999998 0.979163
0.48999999999999999 0.979583
0.50000000000000000 0.980021
0.51000000000000001 0.980433
0.52000000000000002 0.980821
0.53000000000000003 0.981211
0.54000000000000004 0.981619
0.55000000000000004 0.982013
0.56000000000000005 0.982397
0.56999999999999995 0.982789
0.57999999999999996 0.983162
0.58999999999999997 0.983525
0.59999999999999998 0.983902
0.60999999999999999 0.984247
0.62000000000000000 0.984577
0.63000000000000000 0.984921
0.64000000000000001 0.985249
0.65000000000000002 0.985581
0.66000000000000003 0.9859
0.67000000000000004 0.986219
0.68000000000000005 0.986537
0.68999999999999995 0.986828
0.69999999999999996 0.987129
0.70999999999999996 0.987406
0.71999999999999997 0.987657
0.72999999999999998 0.987913
0.73999999999999999 0.988174
0.75000000000000000 0.988438
0.76000000000000001 0.988683
0.77000000000000002 0.98892
0.78000000000000003 0.989152
0.79000000000000004 0.989373
0.80000000000000004 0.989573
0.81000000000000005 0.989777
0.81999999999999995 0.989973
0.82999999999999996 0.990158
0.83999999999999997 0.990347
0.84999999999999998 0.990529
0.85999999999999999 0.990724
0.87000000000000000 0.990912
0.88000000000000000 0.991094
0.89000000000000001 0.991278
0.90000000000000002 0.991451
0.91000000000000003 0.991616
0.92000000000000004 0.991778
0.93000000000000005 0.991939
0.93999999999999995 0.992111
0.94999999999999996 0.99227
0.95999999999999996 0.992437
0.96999999999999997 0.992597
0.97999999999999998 0.992755
0.98999999999999999 0.992912
1.0000000000000000 0.993061
1.1000000000000001 0.994422
1.2000000000000000 0.995572
1.3000000000000000 0.996506
1.3999999999999999 0.997259
1.5000000000000000 0.997838
1.6000000000000001 0.998268
1.7000000000000000 0.998617
1.8000000000000000 0.998911
1.8999999999999999 0.999158
2.0000000000000000 0.999358
2.1000000000000001 0.999513
2.2000000000000002 0.999632
2.2999999999999998 0.999717
2.3999999999999999 0.999784
2.5000000000000000 0.999839
2.6000000000000001 0.999883
2.7000000000000002 0.999918
2.7999999999999998 0.999942
2.8999999999999999 0.999958
3.0000000000000000 0.99997
3.1000000000000001 0.99998
3.2000000000000002 0.999987
3.2999999999999998 0.999992
3.3999999999999999 0.999995
3.5000000000000000 0.999997
3.6000000000000001 0.999998
3.7000000000000002 0.999999
3.7999999999999998 0.999999
3.8999999999999999 1
4.0000000000000000 1
4.0999999999999996 1
4.2000000000000002 1
4.2999999999999998 1
4.4000000000000004 1
4.5000000000000000 1
4.5999999999999996 1
4.7000000000000002 1
4.7999999999999998 1
4.9000000000000004 1
5.0000000000000000 1
5.0999999999999996 1
5.2000000000000002 1
5.2999999999999998 1
5.4000000000000004 1
5.5000000000000000 1
5.5999999999999996 1
5.7000000000000002 1
5.7999999999999998 1
5.9000000000000004 1
6.0000000000000000 1
6.0999999999999996 1
6.2000000000000002 1
6.2999999999999998 1
6.4000000000000004 1
6.5000000000000000 1
6.5999999999999996 1
6.7000000000000002 1
6.7999999999999998 1
6.9000000000000004 1
7.0000000000000000 1
7.0999999999999996 1
7.2000000000000002 1
7.2999999999999998 1
7.4000000000000004 1
7.5000000000000000 1
7.5999999999999996 1
7.7000000000000002 1
7.7999999999999998 1
7.9000000000000004 1
8.0000000000000000 1
8.0999999999999996 1
8.1999999999999993 1
8.3000000000000007 1
8.4000000000000004 1
8.5000000000000000 1
8.5999999999999996 1
8.6999999999999993 1
8.8000000000000007 1
8.9000000000000004 1
9.0000000000000000 1
9.0999999999999996 1
9.1999999999999993 1
9.3000000000000007 1
9.4000000000000004 1
9.5000000000000000 1
9.5999999999999996 1
9.6999999999999993 1
9.8000000000000007 1
9.9000000000000004 1
10.000000000000000 1
