# XXZ spin chain 
# DTP for L=20, Delta->0.0
# Integrated and normalized regular part of the optical conductivity I_reg(omega)
# omega/J 1-I_reg(omega)

0.00003 1
0.00006 1
0.00009 1
0.00012 1
0.00015 1
0.00018 1
0.00021 1
0.00024 1
0.00027 1
0.00030 1
0.00033 1
0.00036 1
0.00039 1
0.00042 1
0.00045 1
0.00048 1
0.00051 1
0.00054 1
0.00057 1
0.00060 1
0.00063 1
0.00066 1
0.00069 1
0.00072 1
0.00075 1
0.00078 1
0.00081 1
0.00084 1
0.00087 1
0.00090 1
0.00093 1
0.00096 1
0.00099 1
0.00102 1
0.00105 1
0.00108 1
0.00111 1
0.00114 1
0.00117 1
0.00120 1
0.00123 1
0.00126 1
0.00129 1
0.00132 1
0.00135 1
0.00138 1
0.00141 1
0.00144 1
0.00147 1
0.00150 1
0.00153 1
0.00156 1
0.00159 1
0.00162 1
0.00165 1
0.00168 1
0.00171 1
0.00174 1
0.00177 1
0.00180 1
0.00183 1
0.00186 1
0.00189 1
0.00192 1
0.00195 1
0.00198 1
0.00201 1
0.00204 1
0.00207 1
0.00210 1
0.00213 1
0.00216 1
0.00219 1
0.00222 1
0.00225 1
0.00228 1
0.00231 1
0.00234 1
0.00237 1
0.00240 1
0.00243 1
0.00246 1
0.00249 1
0.00252 1
0.00255 1
0.00258 1
0.00261 1
0.00264 1
0.00267 1
0.00270 1
0.00273 1
0.00276 1
0.00279 1
0.00282 1
0.00285 1
0.00288 1
0.00291 1
0.00294 1
0.00297 1
0.00300 1
0.00303 1
0.00306 1
0.00309 1
0.00312 1
0.00315 1
0.00318 1
0.00321 1
0.00324 1
0.00327 1
0.00330 1
0.00333 1
0.00336 1
0.00339 1
0.00342 1
0.00345 1
0.00348 1
0.00351 1
0.00354 1
0.00357 1
0.00360 1
0.00363 1
0.00366 1
0.00369 1
0.00372 1
0.00375 1
0.00378 1
0.00381 1
0.00384 1
0.00387 1
0.00390 1
0.00393 1
0.00396 1
0.00399 1
0.00402 1
0.00405 1
0.00408 1
0.00411 1
0.00414 1
0.00417 1
0.00420 1
0.00423 1
0.00426 1
0.00429 1
0.00432 1
0.00435 1
0.00438 1
0.00441 1
0.00444 1
0.00447 1
0.00450 1
0.00453 1
0.00456 1
0.00459 1
0.00462 1
0.00465 1
0.00468 1
0.00471 1
0.00474 1
0.00477 1
0.00480 1
0.00483 1
0.00486 1
0.00489 1
0.00492 1
0.00495 1
0.00498 1
0.00501 1
0.00504 1
0.00507 1
0.00510 1
0.00513 1
0.00516 1
0.00519 1
0.00522 1
0.00525 1
0.00528 1
0.00531 1
0.00534 1
0.00537 1
0.00540 1
0.00543 1
0.00546 1
0.00549 1
0.00552 1
0.00555 1
0.00558 1
0.00561 1
0.00564 1
0.00567 1
0.00570 1
0.00573 1
0.00576 1
0.00579 1
0.00582 1
0.00585 1
0.00588 1
0.00591 1
0.00594 1
0.00597 1
0.00600 1
0.00603 1
0.00606 1
0.00609 1
0.00612 1
0.00615 1
0.00618 1
0.00621 1
0.00624 1
0.00627 1
0.00630 1
0.00633 1
0.00636 1
0.00639 1
0.00642 1
0.00645 1
0.00648 1
0.00651 1
0.00654 1
0.00657 1
0.00660 1
0.00663 1
0.00666 1
0.00669 1
0.00672 1
0.00675 1
0.00678 1
0.00681 1
0.00684 1
0.00687 1
0.00690 1
0.00693 1
0.00696 1
0.00699 1
0.00702 1
0.00705 1
0.00708 1
0.00711 1
0.00714 1
0.00717 1
0.00720 1
0.00723 1
0.00726 1
0.00729 1
0.00732 1
0.00735 1
0.00738 1
0.00741 1
0.00744 1
0.00747 1
0.00750 1
0.00753 1
0.00756 1
0.00759 1
0.00762 1
0.00765 1
0.00768 1
0.00771 1
0.00774 1
0.00777 1
0.00780 1
0.00783 1
0.00786 0.999365
0.00789 0.999365
0.00792 0.999365
0.00795 0.999365
0.00798 0.999365
0.00801 0.999365
0.00804 0.999365
0.00807 0.999365
0.00810 0.999365
0.00813 0.999365
0.00816 0.999365
0.00819 0.999365
0.00822 0.999365
0.00825 0.999365
0.00828 0.998729
0.00831 0.998729
0.00834 0.998729
0.00837 0.998729
0.00840 0.998729
0.00843 0.998729
0.00846 0.998729
0.00849 0.998729
0.00852 0.998729
0.00855 0.998729
0.00858 0.998729
0.00861 0.998729
0.00864 0.998729
0.00867 0.998729
0.00870 0.998729
0.00873 0.998729
0.00876 0.998729
0.00879 0.998729
0.00882 0.998729
0.00885 0.998729
0.00888 0.998729
0.00891 0.998729
0.00894 0.998729
0.00897 0.998729
0.00900 0.998094
0.00903 0.998094
0.00906 0.998094
0.00909 0.998094
0.00912 0.998094
0.00915 0.998094
0.00918 0.998094
0.00921 0.998094
0.00924 0.998094
0.00927 0.998094
0.00930 0.998094
0.00933 0.998094
0.00936 0.998094
0.00939 0.998094
0.00942 0.998094
0.00945 0.998094
0.00948 0.998094
0.00951 0.997459
0.00954 0.997459
0.00957 0.997459
0.00960 0.997459
0.00963 0.997459
0.00966 0.997459
0.00969 0.997459
0.00972 0.997459
0.00975 0.997459
0.00978 0.997459
0.00981 0.997459
0.00984 0.997459
0.00987 0.997459
0.00990 0.997459
0.00993 0.997459
0.00996 0.997459
0.00999 0.997459
0.01002 0.997459
0.01005 0.997459
0.01008 0.997459
0.01011 0.997459
0.01014 0.997459
0.01017 0.997459
0.01020 0.997459
0.01023 0.997459
0.01026 0.997459
0.01029 0.997459
0.01032 0.997459
0.01035 0.997459
0.01038 0.997459
0.01041 0.997459
0.01044 0.997459
0.01047 0.997459
0.01050 0.996823
0.01053 0.996823
0.01056 0.996823
0.01059 0.996823
0.01062 0.996823
0.01065 0.996823
0.01068 0.996823
0.01071 0.996823
0.01074 0.996823
0.01077 0.996823
0.01080 0.996823
0.01083 0.996823
0.01086 0.996823
0.01089 0.996823
0.01092 0.996823
0.01095 0.996823
0.01098 0.996823
0.01101 0.996823
0.01104 0.996188
0.01107 0.996188
0.01110 0.996188
0.01113 0.996188
0.01116 0.996188
0.01119 0.996188
0.01122 0.996188
0.01125 0.996188
0.01128 0.996188
0.01131 0.996188
0.01134 0.996188
0.01137 0.996188
0.01140 0.996188
0.01143 0.996188
0.01146 0.996188
0.01149 0.996188
0.01152 0.996188
0.01155 0.996188
0.01158 0.996188
0.01161 0.996188
0.01164 0.996188
0.01167 0.996188
0.01170 0.996188
0.01173 0.996188
0.01176 0.996188
0.01179 0.996188
0.01182 0.996188
0.01185 0.996188
0.01188 0.996188
0.01191 0.996188
0.01194 0.996188
0.01197 0.996188
0.01200 0.996188
0.01203 0.996188
0.01206 0.996188
0.01209 0.995553
0.01212 0.995553
0.01215 0.995553
0.01218 0.995553
0.01221 0.995553
0.01224 0.995553
0.01227 0.995553
0.01230 0.995553
0.01233 0.994917
0.01236 0.994917
0.01239 0.994282
0.01242 0.994282
0.01245 0.994282
0.01248 0.994282
0.01251 0.994282
0.01254 0.994282
0.01257 0.993647
0.01260 0.993647
0.01263 0.993647
0.01266 0.993647
0.01269 0.993011
0.01272 0.993011
0.01275 0.993011
0.01278 0.993011
0.01281 0.992376
0.01284 0.992376
0.01287 0.992376
0.01290 0.992376
0.01293 0.992376
0.01296 0.992376
0.01299 0.992376
0.01302 0.991741
0.01305 0.991741
0.01308 0.991105
0.01311 0.991105
0.01314 0.991105
0.01317 0.991105
0.01320 0.99047
0.01323 0.99047
0.01326 0.99047
0.01329 0.99047
0.01332 0.99047
0.01335 0.99047
0.01338 0.989835
0.01341 0.989835
0.01344 0.989835
0.01347 0.9892
0.01350 0.9892
0.01353 0.9892
0.01356 0.9892
0.01359 0.9892
0.01362 0.9892
0.01365 0.9892
0.01368 0.9892
0.01371 0.9892
0.01374 0.9892
0.01377 0.9892
0.01380 0.9892
0.01383 0.988564
0.01386 0.988564
0.01389 0.988564
0.01392 0.988564
0.01395 0.987929
0.01398 0.987929
0.01401 0.987929
0.01404 0.987929
0.01407 0.987929
0.01410 0.987294
0.01413 0.987294
0.01416 0.987294
0.01419 0.987294
0.01422 0.986658
0.01425 0.986658
0.01428 0.986658
0.01431 0.986658
0.01434 0.986658
0.01437 0.986658
0.01440 0.986658
0.01443 0.986023
0.01446 0.986023
0.01449 0.986023
0.01452 0.986023
0.01455 0.986023
0.01458 0.985387
0.01461 0.985387
0.01464 0.984752
0.01467 0.984752
0.01470 0.984752
0.01473 0.984752
0.01476 0.984752
0.01479 0.984752
0.01482 0.984752
0.01485 0.984752
0.01488 0.984117
0.01491 0.984117
0.01494 0.984117
0.01497 0.984117
0.01500 0.984117
0.01503 0.984117
0.01506 0.984117
0.01509 0.984117
0.01512 0.984117
0.01515 0.984117
0.01518 0.984117
0.01521 0.983482
0.01524 0.983482
0.01527 0.983482
0.01530 0.983482
0.01533 0.983482
0.01536 0.982846
0.01539 0.982846
0.01542 0.982846
0.01545 0.982846
0.01548 0.982846
0.01551 0.982846
0.01554 0.982846
0.01557 0.982846
0.01560 0.982846
0.01563 0.982846
0.01566 0.982211
0.01569 0.982211
0.01572 0.982211
0.01575 0.982211
0.01578 0.982211
0.01581 0.981576
0.01584 0.981576
0.01587 0.98094
0.01590 0.98094
0.01593 0.98094
0.01596 0.98094
0.01599 0.98094
0.01602 0.98094
0.01605 0.98094
0.01608 0.98094
0.01611 0.98094
0.01614 0.980305
0.01617 0.980305
0.01620 0.980305
0.01623 0.980305
0.01626 0.980305
0.01629 0.980305
0.01632 0.980305
0.01635 0.980305
0.01638 0.980305
0.01641 0.980305
0.01644 0.97967
0.01647 0.97967
0.01650 0.97967
0.01653 0.97967
0.01656 0.97967
0.01659 0.97967
0.01662 0.979034
0.01665 0.979034
0.01668 0.979034
0.01671 0.979034
0.01674 0.978399
0.01677 0.978399
0.01680 0.978399
0.01683 0.978399
0.01686 0.978399
0.01689 0.978399
0.01692 0.978399
0.01695 0.978399
0.01698 0.978399
0.01701 0.978399
0.01704 0.978399
0.01707 0.978399
0.01710 0.978399
0.01713 0.977764
0.01716 0.977764
0.01719 0.977764
0.01722 0.977764
0.01725 0.977764
0.01728 0.977764
0.01731 0.977128
0.01734 0.977128
0.01737 0.977128
0.01740 0.977128
0.01743 0.975222
0.01746 0.975222
0.01749 0.975222
0.01752 0.975222
0.01755 0.975222
0.01758 0.975222
0.01761 0.975222
0.01764 0.974587
0.01767 0.974587
0.01770 0.973952
0.01773 0.973952
0.01776 0.973316
0.01779 0.972681
0.01782 0.972681
0.01785 0.972046
0.01788 0.972046
0.01791 0.972046
0.01794 0.972046
0.01797 0.972046
0.01800 0.972046
0.01803 0.97141
0.01806 0.97141
0.01809 0.97141
0.01812 0.97141
0.01815 0.97141
0.01818 0.97141
0.01821 0.97141
0.01824 0.97014
0.01827 0.97014
0.01830 0.97014
0.01833 0.969504
0.01836 0.968869
0.01839 0.968869
0.01842 0.968869
0.01845 0.968869
0.01848 0.968869
0.01851 0.968234
0.01854 0.966963
0.01857 0.966328
0.01860 0.966328
0.01863 0.966328
0.01866 0.966328
0.01869 0.966328
0.01872 0.965692
0.01875 0.965692
0.01878 0.965692
0.01881 0.965692
0.01884 0.965057
0.01887 0.964422
0.01890 0.963786
0.01893 0.963786
0.01896 0.963786
0.01899 0.963151
0.01902 0.962516
0.01905 0.962516
0.01908 0.961881
0.01911 0.961881
0.01914 0.961881
0.01917 0.961881
0.01920 0.961245
0.01923 0.961245
0.01926 0.96061
0.01929 0.96061
0.01932 0.959975
0.01935 0.959975
0.01938 0.959975
0.01941 0.959975
0.01944 0.959339
0.01947 0.959339
0.01950 0.958704
0.01953 0.958069
0.01956 0.957433
0.01959 0.957433
0.01962 0.957433
0.01965 0.957433
0.01968 0.957433
0.01971 0.956798
0.01974 0.956798
0.01977 0.956163
0.01980 0.956163
0.01983 0.955527
0.01986 0.955527
0.01989 0.955527
0.01992 0.955527
0.01995 0.954892
0.01998 0.954892
0.02001 0.953621
0.02004 0.953621
0.02007 0.952986
0.02010 0.952986
0.02013 0.952986
0.02016 0.952351
0.02019 0.952351
0.02022 0.952351
0.02025 0.951715
0.02028 0.951715
0.02031 0.951715
0.02034 0.951715
0.02037 0.950445
0.02040 0.949809
0.02043 0.949809
0.02046 0.949809
0.02049 0.948539
0.02052 0.948539
0.02055 0.948539
0.02058 0.948539
0.02061 0.947903
0.02064 0.947903
0.02067 0.947903
0.02070 0.947903
0.02073 0.947268
0.02076 0.947268
0.02079 0.947268
0.02082 0.947268
0.02085 0.946633
0.02088 0.946633
0.02091 0.946633
0.02094 0.946633
0.02097 0.945998
0.02100 0.945998
0.02103 0.945998
0.02106 0.945998
0.02109 0.945362
0.02112 0.945362
0.02115 0.945362
0.02118 0.945362
0.02121 0.944727
0.02124 0.944727
0.02127 0.944727
0.02130 0.944091
0.02133 0.944091
0.02136 0.943456
0.02139 0.943456
0.02142 0.942821
0.02145 0.942821
0.02148 0.942821
0.02151 0.942186
0.02154 0.94155
0.02157 0.94155
0.02160 0.94155
0.02163 0.94155
0.02166 0.94155
0.02169 0.94155
0.02172 0.94155
0.02175 0.940915
0.02178 0.940915
0.02181 0.94028
0.02184 0.94028
0.02187 0.94028
0.02190 0.94028
0.02193 0.94028
0.02196 0.939644
0.02199 0.939009
0.02202 0.939009
0.02205 0.939009
0.02208 0.939009
0.02211 0.938374
0.02214 0.938374
0.02217 0.938374
0.02220 0.937738
0.02223 0.937738
0.02226 0.937738
0.02229 0.937738
0.02232 0.937738
0.02235 0.937738
0.02238 0.937738
0.02241 0.937738
0.02244 0.936468
0.02247 0.936468
0.02250 0.936468
0.02253 0.936468
0.02256 0.936468
0.02259 0.935832
0.02262 0.935832
0.02265 0.935832
0.02268 0.935832
0.02271 0.933291
0.02274 0.932656
0.02277 0.93202
0.02280 0.93202
0.02283 0.93202
0.02286 0.931385
0.02289 0.931385
0.02292 0.931385
0.02295 0.931385
0.02298 0.93075
0.02301 0.93075
0.02304 0.93075
0.02307 0.93075
0.02310 0.93075
0.02313 0.930114
0.02316 0.929479
0.02319 0.929479
0.02322 0.928844
0.02325 0.927573
0.02328 0.927573
0.02331 0.926938
0.02334 0.926938
0.02337 0.926302
0.02340 0.926302
0.02343 0.925667
0.02346 0.925667
0.02349 0.925667
0.02352 0.923761
0.02355 0.923761
0.02358 0.923126
0.02361 0.923126
0.02364 0.92122
0.02367 0.92122
0.02370 0.92122
0.02373 0.92122
0.02376 0.92122
0.02379 0.919314
0.02382 0.918043
0.02385 0.917408
0.02388 0.916773
0.02391 0.916773
0.02394 0.916773
0.02397 0.916773
0.02400 0.916773
0.02403 0.916773
0.02406 0.916137
0.02409 0.915502
0.02412 0.915502
0.02415 0.914867
0.02418 0.914867
0.02421 0.914867
0.02424 0.914867
0.02427 0.913596
0.02430 0.913596
0.02433 0.912961
0.02436 0.912325
0.02439 0.91169
0.02442 0.911055
0.02445 0.911055
0.02448 0.910419
0.02451 0.907878
0.02454 0.907878
0.02457 0.907878
0.02460 0.907243
0.02463 0.906607
0.02466 0.906607
0.02469 0.905972
0.02472 0.905337
0.02475 0.905337
0.02478 0.905337
0.02481 0.905337
0.02484 0.904701
0.02487 0.904701
0.02490 0.903431
0.02493 0.90216
0.02496 0.901525
0.02499 0.901525
0.02502 0.901525
0.02505 0.900254
0.02508 0.898983
0.02511 0.898983
0.02514 0.898348
0.02517 0.898348
0.02520 0.897078
0.02523 0.897078
0.02526 0.897078
0.02529 0.896442
0.02532 0.896442
0.02535 0.896442
0.02538 0.896442
0.02541 0.895807
0.02544 0.895172
0.02547 0.895172
0.02550 0.894536
0.02553 0.894536
0.02556 0.894536
0.02559 0.893901
0.02562 0.893901
0.02565 0.893266
0.02568 0.893266
0.02571 0.891995
0.02574 0.89136
0.02577 0.89136
0.02580 0.89136
0.02583 0.89136
0.02586 0.89136
0.02589 0.890089
0.02592 0.888818
0.02595 0.888183
0.02598 0.888183
0.02601 0.887548
0.02604 0.886277
0.02607 0.886277
0.02610 0.885642
0.02613 0.885642
0.02616 0.885642
0.02619 0.885642
0.02622 0.885006
0.02625 0.885006
0.02628 0.885006
0.02631 0.884371
0.02634 0.883736
0.02637 0.883736
0.02640 0.883736
0.02643 0.883736
0.02646 0.8831
0.02649 0.8831
0.02652 0.882465
0.02655 0.882465
0.02658 0.881194
0.02661 0.881194
0.02664 0.880559
0.02667 0.880559
0.02670 0.879924
0.02673 0.879288
0.02676 0.879288
0.02679 0.879288
0.02682 0.879288
0.02685 0.879288
0.02688 0.878653
0.02691 0.878018
0.02694 0.876747
0.02697 0.876747
0.02700 0.876747
0.02703 0.876112
0.02706 0.876112
0.02709 0.876112
0.02712 0.875476
0.02715 0.875476
0.02718 0.875476
0.02721 0.874841
0.02724 0.874206
0.02727 0.874206
0.02730 0.874206
0.02733 0.874206
0.02736 0.874206
0.02739 0.873571
0.02742 0.873571
0.02745 0.8723
0.02748 0.8723
0.02751 0.8723
0.02754 0.8723
0.02757 0.871029
0.02760 0.871029
0.02763 0.871029
0.02766 0.870394
0.02769 0.868488
0.02772 0.868488
0.02775 0.868488
0.02778 0.868488
0.02781 0.865311
0.02784 0.864041
0.02787 0.864041
0.02790 0.864041
0.02793 0.864041
0.02796 0.862135
0.02799 0.861499
0.02802 0.861499
0.02805 0.860864
0.02808 0.860864
0.02811 0.860864
0.02814 0.859593
0.02817 0.859593
0.02820 0.859593
0.02823 0.859593
0.02826 0.858958
0.02829 0.858958
0.02832 0.858958
0.02835 0.858958
0.02838 0.857687
0.02841 0.857687
0.02844 0.855781
0.02847 0.855781
0.02850 0.855146
0.02853 0.854511
0.02856 0.850064
0.02859 0.850064
0.02862 0.848793
0.02865 0.848793
0.02868 0.848158
0.02871 0.846887
0.02874 0.846252
0.02877 0.846252
0.02880 0.845616
0.02883 0.845616
0.02886 0.845616
0.02889 0.845616
0.02892 0.844981
0.02895 0.844981
0.02898 0.844981
0.02901 0.844981
0.02904 0.84371
0.02907 0.84244
0.02910 0.839263
0.02913 0.839263
0.02916 0.839263
0.02919 0.839263
0.02922 0.837357
0.02925 0.837357
0.02928 0.83418
0.02931 0.83291
0.02934 0.831639
0.02937 0.831004
0.02940 0.829733
0.02943 0.827827
0.02946 0.827192
0.02949 0.825921
0.02952 0.825921
0.02955 0.825286
0.02958 0.825286
0.02961 0.825286
0.02964 0.824651
0.02967 0.824651
0.02970 0.824015
0.02973 0.82338
0.02976 0.822745
0.02979 0.822745
0.02982 0.822745
0.02985 0.822109
0.02988 0.822109
0.02991 0.820839
0.02994 0.820203
0.02997 0.820203
0.03000 0.819568
0.03003 0.818933
0.03006 0.818933
0.03009 0.818297
0.03012 0.817662
0.03015 0.817662
0.03018 0.817662
0.03021 0.817662
0.03024 0.817027
0.03027 0.814485
0.03030 0.814485
0.03033 0.814485
0.03036 0.81385
0.03039 0.813215
0.03042 0.813215
0.03045 0.813215
0.03048 0.812579
0.03051 0.812579
0.03054 0.812579
0.03057 0.811944
0.03060 0.811944
0.03063 0.810673
0.03066 0.810038
0.03069 0.808767
0.03072 0.807497
0.03075 0.807497
0.03078 0.806226
0.03081 0.806226
0.03084 0.805591
0.03087 0.805591
0.03090 0.804956
0.03093 0.804956
0.03096 0.804956
0.03099 0.804956
0.03102 0.803685
0.03105 0.801779
0.03108 0.800508
0.03111 0.800508
0.03114 0.800508
0.03117 0.798602
0.03120 0.798602
0.03123 0.797967
0.03126 0.797332
0.03129 0.796696
0.03132 0.796696
0.03135 0.796061
0.03138 0.796061
0.03141 0.796061
0.03144 0.79479
0.03147 0.794155
0.03150 0.792884
0.03153 0.792884
0.03156 0.792249
0.03159 0.792249
0.03162 0.792249
0.03165 0.786531
0.03168 0.785896
0.03171 0.78526
0.03174 0.78526
0.03177 0.78526
0.03180 0.783355
0.03183 0.782719
0.03186 0.782084
0.03189 0.781449
0.03192 0.780813
0.03195 0.780813
0.03198 0.780178
0.03201 0.780178
0.03204 0.779543
0.03207 0.779543
0.03210 0.778907
0.03213 0.778907
0.03216 0.778907
0.03219 0.778272
0.03222 0.778272
0.03225 0.778272
0.03228 0.777637
0.03231 0.777637
0.03234 0.777001
0.03237 0.775095
0.03240 0.775095
0.03243 0.773189
0.03246 0.773189
0.03249 0.770013
0.03252 0.769377
0.03255 0.768107
0.03258 0.767471
0.03261 0.76493
0.03264 0.762389
0.03267 0.762389
0.03270 0.761118
0.03273 0.758577
0.03276 0.758577
0.03279 0.758577
0.03282 0.757942
0.03285 0.757942
0.03288 0.757306
0.03291 0.756671
0.03294 0.756671
0.03297 0.756036
0.03300 0.756036
0.03303 0.756036
0.03306 0.754765
0.03309 0.75413
0.03312 0.752859
0.03315 0.752859
0.03318 0.752224
0.03321 0.752224
0.03324 0.750953
0.03327 0.750318
0.03330 0.750318
0.03333 0.749682
0.03336 0.748412
0.03339 0.747141
0.03342 0.746506
0.03345 0.745235
0.03348 0.745235
0.03351 0.745235
0.03354 0.743964
0.03357 0.740788
0.03360 0.740788
0.03363 0.740152
0.03366 0.738247
0.03369 0.738247
0.03372 0.738247
0.03375 0.737611
0.03378 0.736976
0.03381 0.731258
0.03384 0.728717
0.03387 0.728081
0.03390 0.727446
0.03393 0.727446
0.03396 0.726811
0.03399 0.72554
0.03402 0.724905
0.03405 0.722999
0.03408 0.722363
0.03411 0.721728
0.03414 0.719187
0.03417 0.718551
0.03420 0.718551
0.03423 0.717916
0.03426 0.717916
0.03429 0.717281
0.03432 0.717281
0.03435 0.717281
0.03438 0.716645
0.03441 0.716645
0.03444 0.713469
0.03447 0.713469
0.03450 0.713469
0.03453 0.712834
0.03456 0.712198
0.03459 0.709657
0.03462 0.708386
0.03465 0.707751
0.03468 0.70648
0.03471 0.70521
0.03474 0.70521
0.03477 0.704574
0.03480 0.704574
0.03483 0.701398
0.03486 0.700762
0.03489 0.700762
0.03492 0.700127
0.03495 0.699492
0.03498 0.698856
0.03501 0.698856
0.03504 0.698221
0.03507 0.698221
0.03510 0.697586
0.03513 0.694409
0.03516 0.693139
0.03519 0.687421
0.03522 0.686785
0.03525 0.686785
0.03528 0.68615
0.03531 0.685515
0.03534 0.682338
0.03537 0.682338
0.03540 0.680432
0.03543 0.679797
0.03546 0.679797
0.03549 0.679161
0.03552 0.679161
0.03555 0.678526
0.03558 0.675985
0.03561 0.675349
0.03564 0.668996
0.03567 0.668361
0.03570 0.668361
0.03573 0.668361
0.03576 0.668361
0.03579 0.665184
0.03582 0.665184
0.03585 0.664549
0.03588 0.663914
0.03591 0.663278
0.03594 0.663278
0.03597 0.661372
0.03600 0.658831
0.03603 0.658196
0.03606 0.658196
0.03609 0.65756
0.03612 0.656925
0.03615 0.65629
0.03618 0.655654
0.03621 0.654384
0.03624 0.654384
0.03627 0.653113
0.03630 0.651207
0.03633 0.649301
0.03636 0.649301
0.03639 0.648666
0.03642 0.645489
0.03645 0.642313
0.03648 0.642313
0.03651 0.641677
0.03654 0.640407
0.03657 0.637865
0.03660 0.63723
0.03663 0.63723
0.03666 0.63723
0.03669 0.636595
0.03672 0.636595
0.03675 0.635959
0.03678 0.634689
0.03681 0.632783
0.03684 0.632147
0.03687 0.630877
0.03690 0.628335
0.03693 0.625794
0.03696 0.624524
0.03699 0.620712
0.03702 0.620712
0.03705 0.620076
0.03708 0.61817
0.03711 0.614994
0.03714 0.614358
0.03717 0.613723
0.03720 0.613723
0.03723 0.613723
0.03726 0.613088
0.03729 0.611817
0.03732 0.611182
0.03735 0.610546
0.03738 0.608005
0.03741 0.608005
0.03744 0.606099
0.03747 0.606099
0.03750 0.605464
0.03753 0.605464
0.03756 0.604828
0.03759 0.604193
0.03762 0.602922
0.03765 0.602287
0.03768 0.602287
0.03771 0.601017
0.03774 0.600381
0.03777 0.598475
0.03780 0.59784
0.03783 0.596569
0.03786 0.595299
0.03789 0.593393
0.03792 0.591487
0.03795 0.590851
0.03798 0.585769
0.03801 0.585769
0.03804 0.585769
0.03807 0.585769
0.03810 0.584498
0.03813 0.583863
0.03816 0.583227
0.03819 0.582592
0.03822 0.582592
0.03825 0.580686
0.03828 0.576874
0.03831 0.573698
0.03834 0.573698
0.03837 0.573062
0.03840 0.573062
0.03843 0.573062
0.03846 0.572427
0.03849 0.570521
0.03852 0.566074
0.03855 0.564168
0.03858 0.55972
0.03861 0.559085
0.03864 0.55845
0.03867 0.55845
0.03870 0.555909
0.03873 0.555909
0.03876 0.554003
0.03879 0.554003
0.03882 0.553367
0.03885 0.553367
0.03888 0.553367
0.03891 0.551461
0.03894 0.550191
0.03897 0.545743
0.03900 0.545743
0.03903 0.545108
0.03906 0.544473
0.03909 0.541296
0.03912 0.540025
0.03915 0.538755
0.03918 0.537484
0.03921 0.537484
0.03924 0.536213
0.03927 0.536213
0.03930 0.536213
0.03933 0.534943
0.03936 0.534307
0.03939 0.534307
0.03942 0.533037
0.03945 0.52986
0.03948 0.52859
0.03951 0.527954
0.03954 0.524142
0.03957 0.523507
0.03960 0.522236
0.03963 0.522236
0.03966 0.520966
0.03969 0.52033
0.03972 0.519695
0.03975 0.519695
0.03978 0.519695
0.03981 0.518424
0.03984 0.518424
0.03987 0.517154
0.03990 0.515248
0.03993 0.515248
0.03996 0.514612
0.03999 0.514612
0.04002 0.513977
0.04005 0.512071
0.04008 0.511436
0.04011 0.511436
0.04014 0.508895
0.04017 0.507624
0.04020 0.506989
0.04023 0.506989
0.04026 0.505083
0.04029 0.504447
0.04032 0.504447
0.04035 0.503812
0.04038 0.502541
0.04041 0.502541
0.04044 0.502541
0.04047 0.501906
0.04050 0.501271
0.04053 0.500635
0.04056 0.5
0.04059 0.498094
0.04062 0.497459
0.04065 0.496823
0.04068 0.494282
0.04071 0.493647
0.04074 0.491741
0.04077 0.491741
0.04080 0.489199
0.04083 0.489199
0.04086 0.487929
0.04089 0.486658
0.04092 0.486023
0.04095 0.486023
0.04098 0.484752
0.04101 0.482846
0.04104 0.482846
0.04107 0.48094
0.04110 0.48094
0.04113 0.48094
0.04116 0.47967
0.04119 0.479034
0.04122 0.477764
0.04125 0.477128
0.04128 0.476493
0.04131 0.476493
0.04134 0.476493
0.04137 0.474587
0.04140 0.473952
0.04143 0.473952
0.04146 0.472046
0.04149 0.472046
0.04152 0.470775
0.04155 0.47014
0.04158 0.468234
0.04161 0.468234
0.04164 0.467598
0.04167 0.466328
0.04170 0.466328
0.04173 0.465057
0.04176 0.465057
0.04179 0.464422
0.04182 0.462516
0.04185 0.461881
0.04188 0.459339
0.04191 0.459339
0.04194 0.458069
0.04197 0.457433
0.04200 0.456163
0.04203 0.455527
0.04206 0.455527
0.04209 0.454892
0.04212 0.454257
0.04215 0.452986
0.04218 0.449809
0.04221 0.449174
0.04224 0.448539
0.04227 0.447903
0.04230 0.447268
0.04233 0.446633
0.04236 0.445997
0.04239 0.440915
0.04242 0.440915
0.04245 0.44028
0.04248 0.44028
0.04251 0.437738
0.04254 0.436468
0.04257 0.435832
0.04260 0.435832
0.04263 0.435197
0.04266 0.434562
0.04269 0.434562
0.04272 0.433926
0.04275 0.433291
0.04278 0.432656
0.04281 0.431385
0.04284 0.430114
0.04287 0.430114
0.04290 0.430114
0.04293 0.428844
0.04296 0.428844
0.04299 0.428844
0.04302 0.426302
0.04305 0.426302
0.04308 0.423126
0.04311 0.419949
0.04314 0.419949
0.04317 0.419949
0.04320 0.419314
0.04323 0.419314
0.04326 0.418679
0.04329 0.418043
0.04332 0.418043
0.04335 0.416773
0.04338 0.414867
0.04341 0.413596
0.04344 0.412961
0.04347 0.412961
0.04350 0.412961
0.04353 0.412961
0.04356 0.412325
0.04359 0.412325
0.04362 0.41169
0.04365 0.411055
0.04368 0.411055
0.04371 0.410419
0.04374 0.410419
0.04377 0.409784
0.04380 0.409149
0.04383 0.409149
0.04386 0.408513
0.04389 0.406607
0.04392 0.406607
0.04395 0.405972
0.04398 0.405972
0.04401 0.405972
0.04404 0.405972
0.04407 0.405337
0.04410 0.404701
0.04413 0.403431
0.04416 0.403431
0.04419 0.403431
0.04422 0.40216
0.04425 0.400254
0.04428 0.400254
0.04431 0.399619
0.04434 0.398983
0.04437 0.398983
0.04440 0.398348
0.04443 0.398348
0.04446 0.398348
0.04449 0.396442
0.04452 0.396442
0.04455 0.393901
0.04458 0.393266
0.04461 0.39263
0.04464 0.39263
0.04467 0.39136
0.04470 0.390724
0.04473 0.386277
0.04476 0.384371
0.04479 0.383736
0.04482 0.3831
0.04485 0.38183
0.04488 0.381194
0.04491 0.379288
0.04494 0.378018
0.04497 0.378018
0.04500 0.377382
0.04503 0.376747
0.04506 0.376112
0.04509 0.375476
0.04512 0.374841
0.04515 0.371665
0.04518 0.371665
0.04521 0.371029
0.04524 0.369759
0.04527 0.368488
0.04530 0.367853
0.04533 0.367853
0.04536 0.367853
0.04539 0.367853
0.04542 0.366582
0.04545 0.366582
0.04548 0.365947
0.04551 0.365311
0.04554 0.365311
0.04557 0.365311
0.04560 0.364041
0.04563 0.364041
0.04566 0.364041
0.04569 0.36277
0.04572 0.360229
0.04575 0.360229
0.04578 0.357052
0.04581 0.357052
0.04584 0.357052
0.04587 0.355781
0.04590 0.355146
0.04593 0.355146
0.04596 0.354511
0.04599 0.354511
0.04602 0.352605
0.04605 0.35197
0.04608 0.35197
0.04611 0.350064
0.04614 0.348793
0.04617 0.348793
0.04620 0.346252
0.04623 0.345616
0.04626 0.345616
0.04629 0.344346
0.04632 0.344346
0.04635 0.34371
0.04638 0.34371
0.04641 0.34371
0.04644 0.343075
0.04647 0.343075
0.04650 0.343075
0.04653 0.339263
0.04656 0.339263
0.04659 0.337992
0.04662 0.337992
0.04665 0.336086
0.04668 0.336086
0.04671 0.336086
0.04674 0.336086
0.04677 0.335451
0.04680 0.334816
0.04683 0.334816
0.04686 0.33418
0.04689 0.33418
0.04692 0.33291
0.04695 0.332274
0.04698 0.331639
0.04701 0.331639
0.04704 0.331639
0.04707 0.331639
0.04710 0.331004
0.04713 0.331004
0.04716 0.331004
0.04719 0.329733
0.04722 0.329733
0.04725 0.32338
0.04728 0.320839
0.04731 0.318933
0.04734 0.318297
0.04737 0.317662
0.04740 0.317027
0.04743 0.315121
0.04746 0.315121
0.04749 0.315121
0.04752 0.31385
0.04755 0.313215
0.04758 0.313215
0.04761 0.313215
0.04764 0.312579
0.04767 0.311944
0.04770 0.310038
0.04773 0.310038
0.04776 0.309403
0.04779 0.307497
0.04782 0.306861
0.04785 0.306861
0.04788 0.305591
0.04791 0.305591
0.04794 0.305591
0.04797 0.305591
0.04800 0.304956
0.04803 0.304956
0.04806 0.303685
0.04809 0.30305
0.04812 0.302414
0.04815 0.301779
0.04818 0.301779
0.04821 0.301779
0.04824 0.300508
0.04827 0.299873
0.04830 0.298602
0.04833 0.297332
0.04836 0.297332
0.04839 0.296696
0.04842 0.296696
0.04845 0.296696
0.04848 0.296061
0.04851 0.296061
0.04854 0.295426
0.04857 0.295426
0.04860 0.29479
0.04863 0.29479
0.04866 0.29352
0.04869 0.29352
0.04872 0.29352
0.04875 0.292249
0.04878 0.291614
0.04881 0.290978
0.04884 0.290978
0.04887 0.290978
0.04890 0.290978
0.04893 0.288437
0.04896 0.288437
0.04899 0.288437
0.04902 0.287802
0.04905 0.287802
0.04908 0.287166
0.04911 0.286531
0.04914 0.28526
0.04917 0.28526
0.04920 0.28526
0.04923 0.28526
0.04926 0.282084
0.04929 0.282084
0.04932 0.282084
0.04935 0.282084
0.04938 0.281449
0.04941 0.278907
0.04944 0.278272
0.04947 0.277001
0.04950 0.277001
0.04953 0.276366
0.04956 0.275731
0.04959 0.275095
0.04962 0.27446
0.04965 0.27446
0.04968 0.273825
0.04971 0.273825
0.04974 0.273825
0.04977 0.271919
0.04980 0.271919
0.04983 0.271919
0.04986 0.271283
0.04989 0.271283
0.04992 0.271283
0.04995 0.271283
0.04998 0.271283
0.05001 0.270648
0.05004 0.270648
0.05007 0.270013
0.05010 0.269377
0.05013 0.269377
0.05016 0.268742
0.05019 0.268742
0.05022 0.267471
0.05025 0.267471
0.05028 0.266836
0.05031 0.265565
0.05034 0.26493
0.05037 0.26493
0.05040 0.26493
0.05043 0.26493
0.05046 0.264295
0.05049 0.264295
0.05052 0.264295
0.05055 0.264295
0.05058 0.261753
0.05061 0.259848
0.05064 0.259848
0.05067 0.259848
0.05070 0.259848
0.05073 0.259212
0.05076 0.259212
0.05079 0.259212
0.05082 0.258577
0.05085 0.258577
0.05088 0.257306
0.05091 0.257306
0.05094 0.256671
0.05097 0.256671
0.05100 0.256036
0.05103 0.254765
0.05106 0.252859
0.05109 0.251588
0.05112 0.250953
0.05115 0.249047
0.05118 0.249047
0.05121 0.249047
0.05124 0.248412
0.05127 0.248412
0.05130 0.247776
0.05133 0.246506
0.05136 0.246506
0.05139 0.24587
0.05142 0.2446
0.05145 0.2446
0.05148 0.2446
0.05151 0.2446
0.05154 0.243964
0.05157 0.243964
0.05160 0.243329
0.05163 0.243329
0.05166 0.242694
0.05169 0.242058
0.05172 0.242058
0.05175 0.241423
0.05178 0.241423
0.05181 0.241423
0.05184 0.238247
0.05187 0.238247
0.05190 0.237611
0.05193 0.237611
0.05196 0.237611
0.05199 0.237611
0.05202 0.237611
0.05205 0.237611
0.05208 0.236976
0.05211 0.236976
0.05214 0.236976
0.05217 0.236341
0.05220 0.236341
0.05223 0.236341
0.05226 0.236341
0.05229 0.236341
0.05232 0.236341
0.05235 0.23507
0.05238 0.234435
0.05241 0.231893
0.05244 0.231893
0.05247 0.231258
0.05250 0.231258
0.05253 0.231258
0.05256 0.229987
0.05259 0.229352
0.05262 0.228717
0.05265 0.228717
0.05268 0.228717
0.05271 0.228081
0.05274 0.228081
0.05277 0.227446
0.05280 0.226811
0.05283 0.226811
0.05286 0.226811
0.05289 0.226811
0.05292 0.226175
0.05295 0.226175
0.05298 0.226175
0.05301 0.226175
0.05304 0.22554
0.05307 0.22554
0.05310 0.22554
0.05313 0.224905
0.05316 0.222999
0.05319 0.222999
0.05322 0.222999
0.05325 0.222999
0.05328 0.222363
0.05331 0.222363
0.05334 0.222363
0.05337 0.222363
0.05340 0.222363
0.05343 0.221728
0.05346 0.221728
0.05349 0.221093
0.05352 0.221093
0.05355 0.221093
0.05358 0.220457
0.05361 0.220457
0.05364 0.220457
0.05367 0.220457
0.05370 0.219822
0.05373 0.219822
0.05376 0.218551
0.05379 0.217281
0.05382 0.21601
0.05385 0.21601
0.05388 0.21601
0.05391 0.21601
0.05394 0.21474
0.05397 0.21474
0.05400 0.212198
0.05403 0.212198
0.05406 0.211563
0.05409 0.210928
0.05412 0.210928
0.05415 0.210928
0.05418 0.210928
0.05421 0.209657
0.05424 0.209022
0.05427 0.209022
0.05430 0.208386
0.05433 0.207116
0.05436 0.205845
0.05439 0.205845
0.05442 0.20521
0.05445 0.20521
0.05448 0.20521
0.05451 0.204574
0.05454 0.204574
0.05457 0.203939
0.05460 0.203939
0.05463 0.203304
0.05466 0.202033
0.05469 0.201398
0.05472 0.201398
0.05475 0.201398
0.05478 0.200762
0.05481 0.200762
0.05484 0.200127
0.05487 0.199492
0.05490 0.199492
0.05493 0.199492
0.05496 0.199492
0.05499 0.198856
0.05502 0.198856
0.05505 0.198856
0.05508 0.198221
0.05511 0.198221
0.05514 0.197586
0.05517 0.19695
0.05520 0.19695
0.05523 0.19695
0.05526 0.19695
0.05529 0.19695
0.05532 0.19695
0.05535 0.194409
0.05538 0.194409
0.05541 0.193774
0.05544 0.193774
0.05547 0.192503
0.05550 0.191868
0.05553 0.191868
0.05556 0.191868
0.05559 0.191233
0.05562 0.191233
0.05565 0.191233
0.05568 0.191233
0.05571 0.191233
0.05574 0.191233
0.05577 0.190597
0.05580 0.190597
0.05583 0.190597
0.05586 0.189962
0.05589 0.189962
0.05592 0.189327
0.05595 0.189327
0.05598 0.188691
0.05601 0.188691
0.05604 0.188056
0.05607 0.188056
0.05610 0.188056
0.05613 0.188056
0.05616 0.185515
0.05619 0.184879
0.05622 0.184879
0.05625 0.184879
0.05628 0.184879
0.05631 0.184244
0.05634 0.184244
0.05637 0.183609
0.05640 0.183609
0.05643 0.183609
0.05646 0.182338
0.05649 0.182338
0.05652 0.182338
0.05655 0.181703
0.05658 0.181067
0.05661 0.180432
0.05664 0.179797
0.05667 0.179797
0.05670 0.179797
0.05673 0.179797
0.05676 0.179797
0.05679 0.179161
0.05682 0.179161
0.05685 0.179161
0.05688 0.178526
0.05691 0.178526
0.05694 0.177891
0.05697 0.177891
0.05700 0.177891
0.05703 0.177891
0.05706 0.177891
0.05709 0.177891
0.05712 0.177255
0.05715 0.17662
0.05718 0.17662
0.05721 0.17662
0.05724 0.17662
0.05727 0.175349
0.05730 0.175349
0.05733 0.175349
0.05736 0.175349
0.05739 0.175349
0.05742 0.175349
0.05745 0.175349
0.05748 0.174714
0.05751 0.174079
0.05754 0.174079
0.05757 0.173443
0.05760 0.173443
0.05763 0.172808
0.05766 0.172173
0.05769 0.172173
0.05772 0.170902
0.05775 0.170902
0.05778 0.170902
0.05781 0.170902
0.05784 0.170267
0.05787 0.170267
0.05790 0.170267
0.05793 0.169632
0.05796 0.169632
0.05799 0.169632
0.05802 0.168996
0.05805 0.168361
0.05808 0.167726
0.05811 0.16709
0.05814 0.16709
0.05817 0.16709
0.05820 0.16582
0.05823 0.16582
0.05826 0.16582
0.05829 0.165184
0.05832 0.165184
0.05835 0.163914
0.05838 0.163278
0.05841 0.163278
0.05844 0.163278
0.05847 0.163278
0.05850 0.162643
0.05853 0.162643
0.05856 0.162643
0.05859 0.162008
0.05862 0.162008
0.05865 0.162008
0.05868 0.161372
0.05871 0.161372
0.05874 0.161372
0.05877 0.161372
0.05880 0.161372
0.05883 0.160737
0.05886 0.160737
0.05889 0.160102
0.05892 0.160102
0.05895 0.158831
0.05898 0.158196
0.05901 0.158196
0.05904 0.15629
0.05907 0.155019
0.05910 0.154384
0.05913 0.153748
0.05916 0.153748
0.05919 0.153748
0.05922 0.153748
0.05925 0.153113
0.05928 0.153113
0.05931 0.152478
0.05934 0.152478
0.05937 0.152478
0.05940 0.152478
0.05943 0.151207
0.05946 0.151207
0.05949 0.151207
0.05952 0.151207
0.05955 0.149936
0.05958 0.149936
0.05961 0.149936
0.05964 0.149301
0.05967 0.149301
0.05970 0.149301
0.05973 0.148666
0.05976 0.148666
0.05979 0.148666
0.05982 0.14803
0.05985 0.14803
0.05988 0.14803
0.05991 0.14803
0.05994 0.14803
0.05997 0.14803
0.06000 0.147395
0.06003 0.147395
0.06006 0.14676
0.06009 0.14676
0.06012 0.14676
0.06015 0.14676
0.06018 0.14676
0.06021 0.146125
0.06024 0.146125
0.06027 0.146125
0.06030 0.146125
0.06033 0.146125
0.06036 0.145489
0.06039 0.145489
0.06042 0.145489
0.06045 0.145489
0.06048 0.144854
0.06051 0.144854
0.06054 0.144854
0.06057 0.144854
0.06060 0.144854
0.06063 0.144854
0.06066 0.143583
0.06069 0.143583
0.06072 0.142948
0.06075 0.142948
0.06078 0.142948
0.06081 0.142313
0.06084 0.142313
0.06087 0.141042
0.06090 0.141042
0.06093 0.141042
0.06096 0.139771
0.06099 0.139771
0.06102 0.139771
0.06105 0.139771
0.06108 0.139771
0.06111 0.139771
0.06114 0.139136
0.06117 0.139136
0.06120 0.139136
0.06123 0.139136
0.06126 0.138501
0.06129 0.138501
0.06132 0.138501
0.06135 0.137865
0.06138 0.137865
0.06141 0.137865
0.06144 0.13723
0.06147 0.13723
0.06150 0.135959
0.06153 0.135324
0.06156 0.135324
0.06159 0.134053
0.06162 0.134053
0.06165 0.133418
0.06168 0.133418
0.06171 0.133418
0.06174 0.132783
0.06177 0.132783
0.06180 0.132783
0.06183 0.132783
0.06186 0.132783
0.06189 0.132783
0.06192 0.132783
0.06195 0.132783
0.06198 0.132783
0.06201 0.132783
0.06204 0.132783
0.06207 0.132147
0.06210 0.132147
0.06213 0.131512
0.06216 0.130877
0.06219 0.129606
0.06222 0.129606
0.06225 0.129606
0.06228 0.129606
0.06231 0.128971
0.06234 0.128971
0.06237 0.128971
0.06240 0.128971
0.06243 0.128971
0.06246 0.128335
0.06249 0.128335
0.06252 0.1277
0.06255 0.1277
0.06258 0.127065
0.06261 0.127065
0.06264 0.127065
0.06267 0.127065
0.06270 0.126429
0.06273 0.126429
0.06276 0.125794
0.06279 0.125794
0.06282 0.125794
0.06285 0.125794
0.06288 0.125159
0.06291 0.125159
0.06294 0.123888
0.06297 0.123888
0.06300 0.123888
0.06303 0.123888
0.06306 0.122618
0.06309 0.122618
0.06312 0.121982
0.06315 0.121982
0.06318 0.121982
0.06321 0.121982
0.06324 0.121982
0.06327 0.121347
0.06330 0.121347
0.06333 0.121347
0.06336 0.121347
0.06339 0.121347
0.06342 0.120076
0.06345 0.119441
0.06348 0.118806
0.06351 0.118806
0.06354 0.118806
0.06357 0.118806
0.06360 0.118806
0.06363 0.11817
0.06366 0.117535
0.06369 0.117535
0.06372 0.117535
0.06375 0.117535
0.06378 0.1169
0.06381 0.115629
0.06384 0.115629
0.06387 0.115629
0.06390 0.115629
0.06393 0.114994
0.06396 0.114994
0.06399 0.114358
0.06402 0.113723
0.06405 0.113723
0.06408 0.113723
0.06411 0.113723
0.06414 0.113723
0.06417 0.113723
0.06420 0.113723
0.06423 0.113723
0.06426 0.113088
0.06429 0.113088
0.06432 0.111817
0.06435 0.111817
0.06438 0.111817
0.06441 0.111817
0.06444 0.111182
0.06447 0.111182
0.06450 0.111182
0.06453 0.111182
0.06456 0.111182
0.06459 0.110546
0.06462 0.110546
0.06465 0.109911
0.06468 0.109911
0.06471 0.109276
0.06474 0.109276
0.06477 0.109276
0.06480 0.109276
0.06483 0.109276
0.06486 0.109276
0.06489 0.10864
0.06492 0.108005
0.06495 0.108005
0.06498 0.108005
0.06501 0.108005
0.06504 0.108005
0.06507 0.10737
0.06510 0.106734
0.06513 0.106734
0.06516 0.106734
0.06519 0.106099
0.06522 0.106099
0.06525 0.105464
0.06528 0.104828
0.06531 0.104828
0.06534 0.104828
0.06537 0.104193
0.06540 0.104193
0.06543 0.104193
0.06546 0.104193
0.06549 0.104193
0.06552 0.104193
0.06555 0.104193
0.06558 0.104193
0.06561 0.103558
0.06564 0.103558
0.06567 0.103558
0.06570 0.103558
0.06573 0.103558
0.06576 0.102922
0.06579 0.102922
0.06582 0.102922
0.06585 0.102922
0.06588 0.102287
0.06591 0.102287
0.06594 0.102287
0.06597 0.102287
0.06600 0.102287
0.06603 0.102287
0.06606 0.102287
0.06609 0.102287
0.06612 0.101652
0.06615 0.101652
0.06618 0.101652
0.06621 0.101652
0.06624 0.101017
0.06627 0.101017
0.06630 0.101017
0.06633 0.101017
0.06636 0.101017
0.06639 0.101017
0.06642 0.100381
0.06645 0.100381
0.06648 0.100381
0.06651 0.099746
0.06654 0.099746
0.06657 0.099111
0.06660 0.099111
0.06663 0.099111
0.06666 0.099111
0.06669 0.098475
0.06672 0.09784
0.06675 0.09784
0.06678 0.09784
0.06681 0.09784
0.06684 0.09784
0.06687 0.097205
0.06690 0.096569
0.06693 0.096569
0.06696 0.096569
0.06699 0.096569
0.06702 0.095934
0.06705 0.095934
0.06708 0.095299
0.06711 0.095299
0.06714 0.095299
0.06717 0.094663
0.06720 0.094663
0.06723 0.094663
0.06726 0.094663
0.06729 0.094663
0.06732 0.094663
0.06735 0.094663
0.06738 0.094028
0.06741 0.093393
0.06744 0.093393
0.06747 0.093393
0.06750 0.092757
0.06753 0.092757
0.06756 0.092757
0.06759 0.092757
0.06762 0.092122
0.06765 0.092122
0.06768 0.091487
0.06771 0.091487
0.06774 0.090851
0.06777 0.090851
0.06780 0.090851
0.06783 0.090851
0.06786 0.090216
0.06789 0.090216
0.06792 0.090216
0.06795 0.089581
0.06798 0.088945
0.06801 0.088945
0.06804 0.088945
0.06807 0.088945
0.06810 0.088945
0.06813 0.088945
0.06816 0.088945
0.06819 0.088945
0.06822 0.088945
0.06825 0.08831
0.06828 0.08831
0.06831 0.08831
0.06834 0.087675
0.06837 0.087675
0.06840 0.087039
0.06843 0.087039
0.06846 0.087039
0.06849 0.087039
0.06852 0.087039
0.06855 0.087039
0.06858 0.087039
0.06861 0.085769
0.06864 0.084498
0.06867 0.084498
0.06870 0.084498
0.06873 0.084498
0.06876 0.084498
0.06879 0.084498
0.06882 0.084498
0.06885 0.083863
0.06888 0.083863
0.06891 0.083863
0.06894 0.083863
0.06897 0.083863
0.06900 0.083863
0.06903 0.083227
0.06906 0.082592
0.06909 0.082592
0.06912 0.082592
0.06915 0.081957
0.06918 0.081957
0.06921 0.081321
0.06924 0.080686
0.06927 0.080686
0.06930 0.080686
0.06933 0.080686
0.06936 0.080686
0.06939 0.080686
0.06942 0.080051
0.06945 0.080051
0.06948 0.080051
0.06951 0.080051
0.06954 0.080051
0.06957 0.079416
0.06960 0.079416
0.06963 0.079416
0.06966 0.079416
0.06969 0.079416
0.06972 0.079416
0.06975 0.079416
0.06978 0.07878
0.06981 0.07878
0.06984 0.07878
0.06987 0.07878
0.06990 0.07878
0.06993 0.07878
0.06996 0.078145
0.06999 0.078145
0.07002 0.07751
0.07005 0.07751
0.07008 0.07751
0.07011 0.07751
0.07014 0.07751
0.07017 0.076874
0.07020 0.076874
0.07023 0.076874
0.07026 0.076874
0.07029 0.076874
0.07032 0.076239
0.07035 0.076239
0.07038 0.076239
0.07041 0.076239
0.07044 0.076239
0.07047 0.076239
0.07050 0.075604
0.07053 0.075604
0.07056 0.075604
0.07059 0.075604
0.07062 0.075604
0.07065 0.074968
0.07068 0.074333
0.07071 0.074333
0.07074 0.073698
0.07077 0.073698
0.07080 0.073698
0.07083 0.073698
0.07086 0.073698
0.07089 0.073062
0.07092 0.073062
0.07095 0.072427
0.07098 0.072427
0.07101 0.072427
0.07104 0.072427
0.07107 0.072427
0.07110 0.072427
0.07113 0.072427
0.07116 0.072427
0.07119 0.072427
0.07122 0.071792
0.07125 0.071156
0.07128 0.071156
0.07131 0.071156
0.07134 0.071156
0.07137 0.071156
0.07140 0.071156
0.07143 0.071156
0.07146 0.071156
0.07149 0.071156
0.07152 0.071156
0.07155 0.071156
0.07158 0.071156
0.07161 0.070521
0.07164 0.070521
0.07167 0.070521
0.07170 0.070521
0.07173 0.070521
0.07176 0.069886
0.07179 0.069886
0.07182 0.069886
0.07185 0.06925
0.07188 0.06925
0.07191 0.068615
0.07194 0.068615
0.07197 0.068615
0.07200 0.068615
0.07203 0.068615
0.07206 0.068615
0.07209 0.068615
0.07212 0.068615
0.07215 0.068615
0.07218 0.068615
0.07221 0.068615
0.07224 0.068615
0.07227 0.068615
0.07230 0.06798
0.07233 0.06798
0.07236 0.06798
0.07239 0.06798
0.07242 0.06798
0.07245 0.067344
0.07248 0.067344
0.07251 0.067344
0.07254 0.067344
0.07257 0.067344
0.07260 0.066709
0.07263 0.066709
0.07266 0.066709
0.07269 0.066709
0.07272 0.066709
0.07275 0.066709
0.07278 0.066074
0.07281 0.066074
0.07284 0.066074
0.07287 0.066074
0.07290 0.065438
0.07293 0.065438
0.07296 0.065438
0.07299 0.065438
0.07302 0.064803
0.07305 0.064803
0.07308 0.064803
0.07311 0.064803
0.07314 0.064168
0.07317 0.064168
0.07320 0.064168
0.07323 0.064168
0.07326 0.064168
0.07329 0.064168
0.07332 0.064168
0.07335 0.064168
0.07338 0.064168
0.07341 0.064168
0.07344 0.064168
0.07347 0.063532
0.07350 0.063532
0.07353 0.063532
0.07356 0.063532
0.07359 0.062897
0.07362 0.062897
0.07365 0.062897
0.07368 0.062897
0.07371 0.062262
0.07374 0.062262
0.07377 0.062262
0.07380 0.060991
0.07383 0.060991
0.07386 0.060991
0.07389 0.060356
0.07392 0.060356
0.07395 0.060356
0.07398 0.060356
0.07401 0.060356
0.07404 0.060356
0.07407 0.060356
0.07410 0.060356
0.07413 0.05972
0.07416 0.05972
0.07419 0.05972
0.07422 0.05972
0.07425 0.05845
0.07428 0.05845
0.07431 0.05845
0.07434 0.05845
0.07437 0.05845
0.07440 0.057814
0.07443 0.057814
0.07446 0.057179
0.07449 0.057179
0.07452 0.056544
0.07455 0.056544
0.07458 0.056544
0.07461 0.056544
0.07464 0.056544
0.07467 0.055909
0.07470 0.055909
0.07473 0.055909
0.07476 0.055909
0.07479 0.055909
0.07482 0.055909
0.07485 0.055909
0.07488 0.055273
0.07491 0.055273
0.07494 0.055273
0.07497 0.055273
0.07500 0.055273
0.07503 0.055273
0.07506 0.055273
0.07509 0.054638
0.07512 0.054638
0.07515 0.054003
0.07518 0.054003
0.07521 0.054003
0.07524 0.054003
0.07527 0.054003
0.07530 0.053367
0.07533 0.053367
0.07536 0.053367
0.07539 0.053367
0.07542 0.052732
0.07545 0.052732
0.07548 0.052732
0.07551 0.052732
0.07554 0.052097
0.07557 0.052097
0.07560 0.052097
0.07563 0.052097
0.07566 0.052097
0.07569 0.052097
0.07572 0.052097
0.07575 0.052097
0.07578 0.052097
0.07581 0.052097
0.07584 0.052097
0.07587 0.051461
0.07590 0.051461
0.07593 0.051461
0.07596 0.051461
0.07599 0.050826
0.07602 0.050826
0.07605 0.050826
0.07608 0.050826
0.07611 0.050826
0.07614 0.050826
0.07617 0.050826
0.07620 0.050826
0.07623 0.050826
0.07626 0.050826
0.07629 0.050826
0.07632 0.050191
0.07635 0.050191
0.07638 0.050191
0.07641 0.050191
0.07644 0.050191
0.07647 0.050191
0.07650 0.050191
0.07653 0.049555
0.07656 0.049555
0.07659 0.049555
0.07662 0.049555
0.07665 0.049555
0.07668 0.049555
0.07671 0.049555
0.07674 0.049555
0.07677 0.04892
0.07680 0.04892
0.07683 0.04892
0.07686 0.04892
0.07689 0.04892
0.07692 0.04892
0.07695 0.04892
0.07698 0.048285
0.07701 0.048285
0.07704 0.048285
0.07707 0.048285
0.07710 0.048285
0.07713 0.048285
0.07716 0.048285
0.07719 0.048285
0.07722 0.048285
0.07725 0.047649
0.07728 0.047649
0.07731 0.047649
0.07734 0.047649
0.07737 0.047649
0.07740 0.047014
0.07743 0.047014
0.07746 0.047014
0.07749 0.047014
0.07752 0.047014
0.07755 0.047014
0.07758 0.047014
0.07761 0.047014
0.07764 0.047014
0.07767 0.047014
0.07770 0.047014
0.07773 0.047014
0.07776 0.047014
0.07779 0.047014
0.07782 0.046379
0.07785 0.046379
0.07788 0.046379
0.07791 0.046379
0.07794 0.046379
0.07797 0.045743
0.07800 0.045743
0.07803 0.045743
0.07806 0.045743
0.07809 0.045743
0.07812 0.045743
0.07815 0.045743
0.07818 0.045108
0.07821 0.045108
0.07824 0.045108
0.07827 0.045108
0.07830 0.045108
0.07833 0.045108
0.07836 0.045108
0.07839 0.045108
0.07842 0.045108
0.07845 0.045108
0.07848 0.045108
0.07851 0.045108
0.07854 0.045108
0.07857 0.045108
0.07860 0.045108
0.07863 0.045108
0.07866 0.044473
0.07869 0.044473
0.07872 0.044473
0.07875 0.044473
0.07878 0.044473
0.07881 0.044473
0.07884 0.044473
0.07887 0.044473
0.07890 0.044473
0.07893 0.043837
0.07896 0.043837
0.07899 0.043837
0.07902 0.043837
0.07905 0.043837
0.07908 0.043837
0.07911 0.043837
0.07914 0.043202
0.07917 0.043202
0.07920 0.042567
0.07923 0.042567
0.07926 0.041931
0.07929 0.041931
0.07932 0.041931
0.07935 0.041931
0.07938 0.041931
0.07941 0.041931
0.07944 0.041931
0.07947 0.041931
0.07950 0.041931
0.07953 0.041931
0.07956 0.041931
0.07959 0.041296
0.07962 0.041296
0.07965 0.041296
0.07968 0.041296
0.07971 0.041296
0.07974 0.041296
0.07977 0.040661
0.07980 0.040661
0.07983 0.040661
0.07986 0.040661
0.07989 0.040661
0.07992 0.040661
0.07995 0.040661
0.07998 0.040661
0.08001 0.040025
0.08004 0.03939
0.08007 0.03939
0.08010 0.03939
0.08013 0.03939
0.08016 0.03939
0.08019 0.03939
0.08022 0.038755
0.08025 0.038755
0.08028 0.038755
0.08031 0.038755
0.08034 0.038755
0.08037 0.038755
0.08040 0.038755
0.08043 0.038755
0.08046 0.038755
0.08049 0.038119
0.08052 0.038119
0.08055 0.038119
0.08058 0.038119
0.08061 0.038119
0.08064 0.037484
0.08067 0.037484
0.08070 0.037484
0.08073 0.037484
0.08076 0.037484
0.08079 0.036849
0.08082 0.036849
0.08085 0.036849
0.08088 0.036213
0.08091 0.036213
0.08094 0.036213
0.08097 0.036213
0.08100 0.036213
0.08103 0.036213
0.08106 0.036213
0.08109 0.036213
0.08112 0.035578
0.08115 0.035578
0.08118 0.035578
0.08121 0.035578
0.08124 0.035578
0.08127 0.035578
0.08130 0.035578
0.08133 0.035578
0.08136 0.035578
0.08139 0.035578
0.08142 0.035578
0.08145 0.035578
0.08148 0.035578
0.08151 0.035578
0.08154 0.035578
0.08157 0.035578
0.08160 0.035578
0.08163 0.035578
0.08166 0.035578
0.08169 0.035578
0.08172 0.035578
0.08175 0.034943
0.08178 0.034943
0.08181 0.034943
0.08184 0.034943
0.08187 0.034943
0.08190 0.034943
0.08193 0.034943
0.08196 0.034943
0.08199 0.034943
0.08202 0.034943
0.08205 0.034943
0.08208 0.034943
0.08211 0.034943
0.08214 0.034943
0.08217 0.034943
0.08220 0.034943
0.08223 0.034943
0.08226 0.034943
0.08229 0.034943
0.08232 0.034943
0.08235 0.034943
0.08238 0.034943
0.08241 0.034943
0.08244 0.034943
0.08247 0.034943
0.08250 0.034307
0.08253 0.034307
0.08256 0.034307
0.08259 0.034307
0.08262 0.034307
0.08265 0.034307
0.08268 0.034307
0.08271 0.034307
0.08274 0.034307
0.08277 0.034307
0.08280 0.034307
0.08283 0.034307
0.08286 0.034307
0.08289 0.034307
0.08292 0.034307
0.08295 0.034307
0.08298 0.034307
0.08301 0.033672
0.08304 0.033672
0.08307 0.033672
0.08310 0.033672
0.08313 0.033672
0.08316 0.033672
0.08319 0.033672
0.08322 0.033672
0.08325 0.033672
0.08328 0.033672
0.08331 0.033037
0.08334 0.033037
0.08337 0.033037
0.08340 0.033037
0.08343 0.032402
0.08346 0.032402
0.08349 0.032402
0.08352 0.032402
0.08355 0.032402
0.08358 0.032402
0.08361 0.032402
0.08364 0.032402
0.08367 0.032402
0.08370 0.031766
0.08373 0.031766
0.08376 0.031766
0.08379 0.031766
0.08382 0.031766
0.08385 0.031766
0.08388 0.031766
0.08391 0.031766
0.08394 0.031766
0.08397 0.031766
0.08400 0.031766
0.08403 0.031766
0.08406 0.031766
0.08409 0.031766
0.08412 0.031131
0.08415 0.031131
0.08418 0.031131
0.08421 0.031131
0.08424 0.031131
0.08427 0.031131
0.08430 0.031131
0.08433 0.030496
0.08436 0.030496
0.08439 0.030496
0.08442 0.030496
0.08445 0.030496
0.08448 0.030496
0.08451 0.030496
0.08454 0.030496
0.08457 0.030496
0.08460 0.030496
0.08463 0.030496
0.08466 0.030496
0.08469 0.030496
0.08472 0.02986
0.08475 0.02986
0.08478 0.02986
0.08481 0.02986
0.08484 0.02986
0.08487 0.02986
0.08490 0.02986
0.08493 0.02986
0.08496 0.02986
0.08499 0.02986
0.08502 0.02986
0.08505 0.02986
0.08508 0.029225
0.08511 0.029225
0.08514 0.029225
0.08517 0.02859
0.08520 0.02859
0.08523 0.02859
0.08526 0.02859
0.08529 0.02859
0.08532 0.02859
0.08535 0.027954
0.08538 0.027954
0.08541 0.027954
0.08544 0.027954
0.08547 0.027954
0.08550 0.027954
0.08553 0.027954
0.08556 0.027954
0.08559 0.027954
0.08562 0.027319
0.08565 0.027319
0.08568 0.027319
0.08571 0.027319
0.08574 0.027319
0.08577 0.027319
0.08580 0.027319
0.08583 0.027319
0.08586 0.027319
0.08589 0.027319
0.08592 0.027319
0.08595 0.026684
0.08598 0.026684
0.08601 0.026684
0.08604 0.026684
0.08607 0.026684
0.08610 0.026684
0.08613 0.026684
0.08616 0.026684
0.08619 0.026684
0.08622 0.026684
0.08625 0.026684
0.08628 0.026684
0.08631 0.026684
0.08634 0.026684
0.08637 0.026048
0.08640 0.026048
0.08643 0.026048
0.08646 0.026048
0.08649 0.026048
0.08652 0.026048
0.08655 0.026048
0.08658 0.026048
0.08661 0.026048
0.08664 0.026048
0.08667 0.026048
0.08670 0.026048
0.08673 0.026048
0.08676 0.026048
0.08679 0.026048
0.08682 0.026048
0.08685 0.026048
0.08688 0.026048
0.08691 0.026048
0.08694 0.026048
0.08697 0.026048
0.08700 0.026048
0.08703 0.026048
0.08706 0.026048
0.08709 0.026048
0.08712 0.025413
0.08715 0.025413
0.08718 0.025413
0.08721 0.025413
0.08724 0.025413
0.08727 0.025413
0.08730 0.025413
0.08733 0.025413
0.08736 0.025413
0.08739 0.025413
0.08742 0.025413
0.08745 0.025413
0.08748 0.025413
0.08751 0.025413
0.08754 0.024778
0.08757 0.024778
0.08760 0.024778
0.08763 0.024778
0.08766 0.024778
0.08769 0.024778
0.08772 0.024778
0.08775 0.024778
0.08778 0.024778
0.08781 0.024778
0.08784 0.024778
0.08787 0.024778
0.08790 0.024778
0.08793 0.024778
0.08796 0.024778
0.08799 0.024778
0.08802 0.024778
0.08805 0.024778
0.08808 0.024778
0.08811 0.024142
0.08814 0.024142
0.08817 0.024142
0.08820 0.024142
0.08823 0.024142
0.08826 0.024142
0.08829 0.024142
0.08832 0.024142
0.08835 0.023507
0.08838 0.023507
0.08841 0.023507
0.08844 0.023507
0.08847 0.023507
0.08850 0.023507
0.08853 0.023507
0.08856 0.023507
0.08859 0.023507
0.08862 0.023507
0.08865 0.023507
0.08868 0.022872
0.08871 0.022872
0.08874 0.022872
0.08877 0.022872
0.08880 0.022872
0.08883 0.022872
0.08886 0.022872
0.08889 0.022872
0.08892 0.022872
0.08895 0.022872
0.08898 0.022872
0.08901 0.022872
0.08904 0.022872
0.08907 0.022872
0.08910 0.022872
0.08913 0.022872
0.08916 0.022872
0.08919 0.022236
0.08922 0.022236
0.08925 0.022236
0.08928 0.022236
0.08931 0.022236
0.08934 0.022236
0.08937 0.022236
0.08940 0.022236
0.08943 0.022236
0.08946 0.022236
0.08949 0.022236
0.08952 0.022236
0.08955 0.022236
0.08958 0.022236
0.08961 0.021601
0.08964 0.021601
0.08967 0.021601
0.08970 0.021601
0.08973 0.021601
0.08976 0.021601
0.08979 0.021601
0.08982 0.021601
0.08985 0.021601
0.08988 0.021601
0.08991 0.021601
0.08994 0.021601
0.08997 0.021601
0.09000 0.021601
0.09003 0.021601
0.09006 0.021601
0.09009 0.021601
0.09012 0.021601
0.09015 0.021601
0.09018 0.021601
0.09021 0.020966
0.09024 0.020966
0.09027 0.020966
0.09030 0.020966
0.09033 0.020966
0.09036 0.020966
0.09039 0.020966
0.09042 0.020966
0.09045 0.020966
0.09048 0.020966
0.09051 0.020966
0.09054 0.020966
0.09057 0.020966
0.09060 0.02033
0.09063 0.02033
0.09066 0.02033
0.09069 0.02033
0.09072 0.02033
0.09075 0.02033
0.09078 0.02033
0.09081 0.02033
0.09084 0.02033
0.09087 0.02033
0.09090 0.02033
0.09093 0.02033
0.09096 0.02033
0.09099 0.02033
0.09102 0.02033
0.09105 0.02033
0.09108 0.02033
0.09111 0.02033
0.09114 0.02033
0.09117 0.02033
0.09120 0.02033
0.09123 0.02033
0.09126 0.02033
0.09129 0.02033
0.09132 0.02033
0.09135 0.02033
0.09138 0.019695
0.09141 0.019695
0.09144 0.019695
0.09147 0.019695
0.09150 0.019695
0.09153 0.019695
0.09156 0.019695
0.09159 0.019695
0.09162 0.019695
0.09165 0.019695
0.09168 0.019695
0.09171 0.019695
0.09174 0.019695
0.09177 0.019695
0.09180 0.019695
0.09183 0.01906
0.09186 0.01906
0.09189 0.01906
0.09192 0.01906
0.09195 0.01906
0.09198 0.01906
0.09201 0.01906
0.09204 0.01906
0.09207 0.01906
0.09210 0.01906
0.09213 0.01906
0.09216 0.01906
0.09219 0.01906
0.09222 0.018424
0.09225 0.018424
0.09228 0.018424
0.09231 0.018424
0.09234 0.018424
0.09237 0.018424
0.09240 0.018424
0.09243 0.018424
0.09246 0.018424
0.09249 0.018424
0.09252 0.018424
0.09255 0.018424
0.09258 0.018424
0.09261 0.018424
0.09264 0.018424
0.09267 0.018424
0.09270 0.018424
0.09273 0.018424
0.09276 0.018424
0.09279 0.018424
0.09282 0.018424
0.09285 0.018424
0.09288 0.018424
0.09291 0.018424
0.09294 0.018424
0.09297 0.018424
0.09300 0.018424
0.09303 0.018424
0.09306 0.017789
0.09309 0.017789
0.09312 0.017789
0.09315 0.017789
0.09318 0.017789
0.09321 0.017789
0.09324 0.017789
0.09327 0.017789
0.09330 0.017789
0.09333 0.017789
0.09336 0.017789
0.09339 0.017789
0.09342 0.017789
0.09345 0.017789
0.09348 0.017789
0.09351 0.017789
0.09354 0.017789
0.09357 0.017789
0.09360 0.017154
0.09363 0.017154
0.09366 0.017154
0.09369 0.017154
0.09372 0.017154
0.09375 0.017154
0.09378 0.017154
0.09381 0.017154
0.09384 0.017154
0.09387 0.017154
0.09390 0.017154
0.09393 0.017154
0.09396 0.017154
0.09399 0.017154
0.09402 0.017154
0.09405 0.017154
0.09408 0.017154
0.09411 0.017154
0.09414 0.016518
0.09417 0.016518
0.09420 0.016518
0.09423 0.016518
0.09426 0.016518
0.09429 0.016518
0.09432 0.016518
0.09435 0.016518
0.09438 0.016518
0.09441 0.016518
0.09444 0.016518
0.09447 0.016518
0.09450 0.016518
0.09453 0.016518
0.09456 0.016518
0.09459 0.016518
0.09462 0.016518
0.09465 0.016518
0.09468 0.016518
0.09471 0.016518
0.09474 0.016518
0.09477 0.016518
0.09480 0.016518
0.09483 0.016518
0.09486 0.016518
0.09489 0.016518
0.09492 0.016518
0.09495 0.015883
0.09498 0.015883
0.09501 0.015883
0.09504 0.015883
0.09507 0.015883
0.09510 0.015883
0.09513 0.015883
0.09516 0.015883
0.09519 0.015883
0.09522 0.015883
0.09525 0.015883
0.09528 0.015883
0.09531 0.015883
0.09534 0.015883
0.09537 0.015883
0.09540 0.015883
0.09543 0.015883
0.09546 0.015883
0.09549 0.015248
0.09552 0.015248
0.09555 0.015248
0.09558 0.015248
0.09561 0.015248
0.09564 0.015248
0.09567 0.015248
0.09570 0.015248
0.09573 0.015248
0.09576 0.015248
0.09579 0.015248
0.09582 0.014612
0.09585 0.014612
0.09588 0.014612
0.09591 0.014612
0.09594 0.014612
0.09597 0.014612
0.09600 0.014612
0.09603 0.014612
0.09606 0.014612
0.09609 0.014612
0.09612 0.014612
0.09615 0.014612
0.09618 0.014612
0.09621 0.014612
0.09624 0.014612
0.09627 0.014612
0.09630 0.014612
0.09633 0.014612
0.09636 0.014612
0.09639 0.014612
0.09642 0.014612
0.09645 0.014612
0.09648 0.014612
0.09651 0.014612
0.09654 0.014612
0.09657 0.014612
0.09660 0.014612
0.09663 0.014612
0.09666 0.014612
0.09669 0.014612
0.09672 0.014612
0.09675 0.014612
0.09678 0.013977
0.09681 0.013977
0.09684 0.013977
0.09687 0.013977
0.09690 0.013977
0.09693 0.013977
0.09696 0.013977
0.09699 0.013977
0.09702 0.013342
0.09705 0.013342
0.09708 0.013342
0.09711 0.013342
0.09714 0.013342
0.09717 0.013342
0.09720 0.013342
0.09723 0.013342
0.09726 0.013342
0.09729 0.013342
0.09732 0.013342
0.09735 0.013342
0.09738 0.013342
0.09741 0.013342
0.09744 0.013342
0.09747 0.013342
0.09750 0.013342
0.09753 0.013342
0.09756 0.013342
0.09759 0.013342
0.09762 0.013342
0.09765 0.013342
0.09768 0.013342
0.09771 0.013342
0.09774 0.013342
0.09777 0.013342
0.09780 0.013342
0.09783 0.013342
0.09786 0.013342
0.09789 0.013342
0.09792 0.013342
0.09795 0.013342
0.09798 0.013342
0.09801 0.013342
0.09804 0.013342
0.09807 0.012706
0.09810 0.012706
0.09813 0.012706
0.09816 0.012706
0.09819 0.012706
0.09822 0.012706
0.09825 0.012706
0.09828 0.012706
0.09831 0.012706
0.09834 0.012706
0.09837 0.012706
0.09840 0.012706
0.09843 0.012706
0.09846 0.012706
0.09849 0.012706
0.09852 0.012706
0.09855 0.012706
0.09858 0.012706
0.09861 0.012706
0.09864 0.012706
0.09867 0.012706
0.09870 0.012071
0.09873 0.012071
0.09876 0.012071
0.09879 0.012071
0.09882 0.012071
0.09885 0.012071
0.09888 0.012071
0.09891 0.012071
0.09894 0.012071
0.09897 0.012071
0.09900 0.012071
0.09903 0.012071
0.09906 0.012071
0.09909 0.012071
0.09912 0.012071
0.09915 0.012071
0.09918 0.012071
0.09921 0.012071
0.09924 0.012071
0.09927 0.012071
0.09930 0.011436
0.09933 0.011436
0.09936 0.011436
0.09939 0.011436
0.09942 0.011436
0.09945 0.011436
0.09948 0.011436
0.09951 0.011436
0.09954 0.011436
0.09957 0.011436
0.09960 0.011436
0.09963 0.011436
0.09966 0.011436
0.09969 0.011436
0.09972 0.011436
0.09975 0.011436
0.09978 0.011436
0.09981 0.011436
0.09984 0.011436
0.09987 0.011436
0.09990 0.010801
0.09993 0.010801
0.09996 0.010801
0.09999 0.010801
0.10002 0.010801
0.10005 0.010801
0.10008 0.010801
0.10011 0.010801
0.10014 0.010801
0.10017 0.010801
0.10020 0.010801
0.10023 0.010801
0.10026 0.010801
0.10029 0.010801
0.10032 0.010801
0.10035 0.010801
0.10038 0.010165
0.10041 0.010165
0.10044 0.010165
0.10047 0.010165
0.10050 0.010165
0.10053 0.010165
0.10056 0.010165
0.10059 0.010165
0.10062 0.010165
0.10065 0.010165
0.10068 0.010165
0.10071 0.010165
0.10074 0.010165
0.10077 0.010165
0.10080 0.010165
0.10083 0.010165
0.10086 0.010165
0.10089 0.010165
0.10092 0.010165
0.10095 0.00953
0.10098 0.00953
0.10101 0.00953
0.10104 0.00953
0.10107 0.00953
0.10110 0.00953
0.10113 0.00953
0.10116 0.00953
0.10119 0.00953
0.10122 0.00953
0.10125 0.00953
0.10128 0.00953
0.10131 0.00953
0.10134 0.00953
0.10137 0.00953
0.10140 0.00953
0.10143 0.00953
0.10146 0.00953
0.10149 0.00953
0.10152 0.00953
0.10155 0.00953
0.10158 0.00953
0.10161 0.00953
0.10164 0.00953
0.10167 0.00953
0.10170 0.00953
0.10173 0.00953
0.10176 0.00953
0.10179 0.00953
0.10182 0.00953
0.10185 0.00953
0.10188 0.00953
0.10191 0.00953
0.10194 0.00953
0.10197 0.00953
0.10200 0.00953
0.10203 0.00953
0.10206 0.00953
0.10209 0.00953
0.10212 0.00953
0.10215 0.00953
0.10218 0.00953
0.10221 0.00953
0.10224 0.00953
0.10227 0.00953
0.10230 0.008895
0.10233 0.008895
0.10236 0.008895
0.10239 0.008895
0.10242 0.008895
0.10245 0.008895
0.10248 0.008895
0.10251 0.008895
0.10254 0.008259
0.10257 0.008259
0.10260 0.008259
0.10263 0.008259
0.10266 0.008259
0.10269 0.008259
0.10272 0.008259
0.10275 0.008259
0.10278 0.008259
0.10281 0.008259
0.10284 0.008259
0.10287 0.008259
0.10290 0.008259
0.10293 0.008259
0.10296 0.008259
0.10299 0.008259
0.10302 0.008259
0.10305 0.008259
0.10308 0.008259
0.10311 0.008259
0.10314 0.008259
0.10317 0.008259
0.10320 0.008259
0.10323 0.008259
0.10326 0.008259
0.10329 0.008259
0.10332 0.008259
0.10335 0.008259
0.10338 0.008259
0.10341 0.008259
0.10344 0.008259
0.10347 0.008259
0.10350 0.008259
0.10353 0.008259
0.10356 0.008259
0.10359 0.008259
0.10362 0.008259
0.10365 0.007624
0.10368 0.007624
0.10371 0.007624
0.10374 0.007624
0.10377 0.007624
0.10380 0.007624
0.10383 0.007624
0.10386 0.007624
0.10389 0.007624
0.10392 0.007624
0.10395 0.007624
0.10398 0.007624
0.10401 0.007624
0.10404 0.007624
0.10407 0.007624
0.10410 0.007624
0.10413 0.007624
0.10416 0.007624
0.10419 0.007624
0.10422 0.007624
0.10425 0.007624
0.10428 0.007624
0.10431 0.007624
0.10434 0.007624
0.10437 0.007624
0.10440 0.007624
0.10443 0.007624
0.10446 0.007624
0.10449 0.007624
0.10452 0.007624
0.10455 0.007624
0.10458 0.007624
0.10461 0.007624
0.10464 0.007624
0.10467 0.007624
0.10470 0.007624
0.10473 0.007624
0.10476 0.006989
0.10479 0.006989
0.10482 0.006989
0.10485 0.006989
0.10488 0.006989
0.10491 0.006989
0.10494 0.006989
0.10497 0.006989
0.10500 0.006989
0.10503 0.006989
0.10506 0.006989
0.10509 0.006989
0.10512 0.006989
0.10515 0.006989
0.10518 0.006989
0.10521 0.006989
0.10524 0.006989
0.10527 0.006989
0.10530 0.006989
0.10533 0.006989
0.10536 0.006989
0.10539 0.006989
0.10542 0.006989
0.10545 0.006989
0.10548 0.006353
0.10551 0.006353
0.10554 0.006353
0.10557 0.006353
0.10560 0.006353
0.10563 0.006353
0.10566 0.006353
0.10569 0.006353
0.10572 0.006353
0.10575 0.006353
0.10578 0.006353
0.10581 0.006353
0.10584 0.006353
0.10587 0.006353
0.10590 0.006353
0.10593 0.006353
0.10596 0.006353
0.10599 0.006353
0.10602 0.006353
0.10605 0.006353
0.10608 0.006353
0.10611 0.006353
0.10614 0.006353
0.10617 0.005718
0.10620 0.005718
0.10623 0.005718
0.10626 0.005718
0.10629 0.005718
0.10632 0.005718
0.10635 0.005718
0.10638 0.005718
0.10641 0.005718
0.10644 0.005718
0.10647 0.005718
0.10650 0.005718
0.10653 0.005718
0.10656 0.005718
0.10659 0.005718
0.10662 0.005718
0.10665 0.005718
0.10668 0.005718
0.10671 0.005718
0.10674 0.005718
0.10677 0.005718
0.10680 0.005718
0.10683 0.005718
0.10686 0.005718
0.10689 0.005718
0.10692 0.005718
0.10695 0.005718
0.10698 0.005718
0.10701 0.005718
0.10704 0.005718
0.10707 0.005718
0.10710 0.005718
0.10713 0.005718
0.10716 0.005718
0.10719 0.005083
0.10722 0.005083
0.10725 0.005083
0.10728 0.005083
0.10731 0.005083
0.10734 0.005083
0.10737 0.005083
0.10740 0.005083
0.10743 0.005083
0.10746 0.005083
0.10749 0.005083
0.10752 0.005083
0.10755 0.005083
0.10758 0.005083
0.10761 0.005083
0.10764 0.005083
0.10767 0.005083
0.10770 0.005083
0.10773 0.005083
0.10776 0.005083
0.10779 0.005083
0.10782 0.005083
0.10785 0.005083
0.10788 0.005083
0.10791 0.005083
0.10794 0.005083
0.10797 0.005083
0.10800 0.005083
0.10803 0.005083
0.10806 0.005083
0.10809 0.005083
0.10812 0.005083
0.10815 0.005083
0.10818 0.005083
0.10821 0.005083
0.10824 0.005083
0.10827 0.005083
0.10830 0.005083
0.10833 0.005083
0.10836 0.005083
0.10839 0.005083
0.10842 0.005083
0.10845 0.005083
0.10848 0.005083
0.10851 0.005083
0.10854 0.005083
0.10857 0.005083
0.10860 0.005083
0.10863 0.005083
0.10866 0.005083
0.10869 0.004447
0.10872 0.004447
0.10875 0.004447
0.10878 0.004447
0.10881 0.004447
0.10884 0.004447
0.10887 0.004447
0.10890 0.004447
0.10893 0.004447
0.10896 0.004447
0.10899 0.004447
0.10902 0.004447
0.10905 0.004447
0.10908 0.004447
0.10911 0.004447
0.10914 0.004447
0.10917 0.004447
0.10920 0.004447
0.10923 0.004447
0.10926 0.004447
0.10929 0.004447
0.10932 0.004447
0.10935 0.004447
0.10938 0.004447
0.10941 0.004447
0.10944 0.004447
0.10947 0.004447
0.10950 0.003812
0.10953 0.003812
0.10956 0.003812
0.10959 0.003812
0.10962 0.003812
0.10965 0.003812
0.10968 0.003812
0.10971 0.003812
0.10974 0.003812
0.10977 0.003812
0.10980 0.003812
0.10983 0.003812
0.10986 0.003812
0.10989 0.003812
0.10992 0.003812
0.10995 0.003812
0.10998 0.003812
0.11001 0.003812
0.11004 0.003812
0.11007 0.003812
0.11010 0.003812
0.11013 0.003812
0.11016 0.003812
0.11019 0.003812
0.11022 0.003812
0.11025 0.003812
0.11028 0.003812
0.11031 0.003812
0.11034 0.003812
0.11037 0.003812
0.11040 0.003812
0.11043 0.003812
0.11046 0.003812
0.11049 0.003812
0.11052 0.003812
0.11055 0.003812
0.11058 0.003812
0.11061 0.003812
0.11064 0.003812
0.11067 0.003812
0.11070 0.003812
0.11073 0.003812
0.11076 0.003812
0.11079 0.003812
0.11082 0.003812
0.11085 0.003812
0.11088 0.003812
0.11091 0.003812
0.11094 0.003812
0.11097 0.003812
0.11100 0.003812
0.11103 0.003812
0.11106 0.003812
0.11109 0.003812
0.11112 0.003812
0.11115 0.003812
0.11118 0.003812
0.11121 0.003812
0.11124 0.003812
0.11127 0.003812
0.11130 0.003812
0.11133 0.003812
0.11136 0.003812
0.11139 0.003812
0.11142 0.003177
0.11145 0.003177
0.11148 0.003177
0.11151 0.003177
0.11154 0.003177
0.11157 0.003177
0.11160 0.003177
0.11163 0.003177
0.11166 0.003177
0.11169 0.003177
0.11172 0.003177
0.11175 0.003177
0.11178 0.003177
0.11181 0.003177
0.11184 0.003177
0.11187 0.003177
0.11190 0.003177
0.11193 0.003177
0.11196 0.003177
0.11199 0.003177
0.11202 0.003177
0.11205 0.003177
0.11208 0.003177
0.11211 0.003177
0.11214 0.003177
0.11217 0.003177
0.11220 0.003177
0.11223 0.003177
0.11226 0.003177
0.11229 0.003177
0.11232 0.003177
0.11235 0.003177
0.11238 0.003177
0.11241 0.003177
0.11244 0.003177
0.11247 0.003177
0.11250 0.003177
0.11253 0.003177
0.11256 0.003177
0.11259 0.003177
0.11262 0.003177
0.11265 0.003177
0.11268 0.003177
0.11271 0.003177
0.11274 0.003177
0.11277 0.003177
0.11280 0.003177
0.11283 0.003177
0.11286 0.003177
0.11289 0.003177
0.11292 0.003177
0.11295 0.003177
0.11298 0.003177
0.11301 0.003177
0.11304 0.003177
0.11307 0.003177
0.11310 0.003177
0.11313 0.003177
0.11316 0.003177
0.11319 0.003177
0.11322 0.003177
0.11325 0.003177
0.11328 0.003177
0.11331 0.003177
0.11334 0.003177
0.11337 0.003177
0.11340 0.003177
0.11343 0.003177
0.11346 0.003177
0.11349 0.003177
0.11352 0.003177
0.11355 0.003177
0.11358 0.003177
0.11361 0.003177
0.11364 0.003177
0.11367 0.003177
0.11370 0.003177
0.11373 0.003177
0.11376 0.003177
0.11379 0.003177
0.11382 0.003177
0.11385 0.003177
0.11388 0.003177
0.11391 0.003177
0.11394 0.003177
0.11397 0.003177
0.11400 0.003177
0.11403 0.003177
0.11406 0.003177
0.11409 0.003177
0.11412 0.003177
0.11415 0.003177
0.11418 0.003177
0.11421 0.002541
0.11424 0.002541
0.11427 0.002541
0.11430 0.002541
0.11433 0.002541
0.11436 0.002541
0.11439 0.002541
0.11442 0.002541
0.11445 0.002541
0.11448 0.002541
0.11451 0.002541
0.11454 0.002541
0.11457 0.002541
0.11460 0.002541
0.11463 0.002541
0.11466 0.002541
0.11469 0.002541
0.11472 0.002541
0.11475 0.002541
0.11478 0.002541
0.11481 0.002541
0.11484 0.002541
0.11487 0.002541
0.11490 0.002541
0.11493 0.002541
0.11496 0.002541
0.11499 0.002541
0.11502 0.002541
0.11505 0.002541
0.11508 0.002541
0.11511 0.002541
0.11514 0.002541
0.11517 0.002541
0.11520 0.002541
0.11523 0.002541
0.11526 0.002541
0.11529 0.002541
0.11532 0.002541
0.11535 0.002541
0.11538 0.002541
0.11541 0.002541
0.11544 0.002541
0.11547 0.002541
0.11550 0.002541
0.11553 0.002541
0.11556 0.002541
0.11559 0.002541
0.11562 0.002541
0.11565 0.002541
0.11568 0.002541
0.11571 0.002541
0.11574 0.002541
0.11577 0.002541
0.11580 0.002541
0.11583 0.002541
0.11586 0.002541
0.11589 0.002541
0.11592 0.002541
0.11595 0.002541
0.11598 0.002541
0.11601 0.002541
0.11604 0.002541
0.11607 0.002541
0.11610 0.001906
0.11613 0.001906
0.11616 0.001906
0.11619 0.001906
0.11622 0.001906
0.11625 0.001906
0.11628 0.001906
0.11631 0.001906
0.11634 0.001906
0.11637 0.001906
0.11640 0.001906
0.11643 0.001906
0.11646 0.001906
0.11649 0.001906
0.11652 0.001906
0.11655 0.001906
0.11658 0.001906
0.11661 0.001906
0.11664 0.001906
0.11667 0.001906
0.11670 0.001906
0.11673 0.001906
0.11676 0.001906
0.11679 0.001906
0.11682 0.001906
0.11685 0.001906
0.11688 0.001906
0.11691 0.001906
0.11694 0.001906
0.11697 0.001906
0.11700 0.001906
0.11703 0.001906
0.11706 0.001906
0.11709 0.001906
0.11712 0.001906
0.11715 0.001906
0.11718 0.001906
0.11721 0.001906
0.11724 0.001906
0.11727 0.001906
0.11730 0.001906
0.11733 0.001906
0.11736 0.001906
0.11739 0.001906
0.11742 0.001906
0.11745 0.001906
0.11748 0.001906
0.11751 0.001906
0.11754 0.001906
0.11757 0.001906
0.11760 0.001906
0.11763 0.001906
0.11766 0.001906
0.11769 0.001906
0.11772 0.001906
0.11775 0.001906
0.11778 0.001906
0.11781 0.001906
0.11784 0.001906
0.11787 0.001906
0.11790 0.001906
0.11793 0.001906
0.11796 0.001906
0.11799 0.001906
0.11802 0.001906
0.11805 0.001906
0.11808 0.001906
0.11811 0.001906
0.11814 0.001906
0.11817 0.001906
0.11820 0.001906
0.11823 0.001906
0.11826 0.001906
0.11829 0.001906
0.11832 0.001906
0.11835 0.001906
0.11838 0.001906
0.11841 0.001906
0.11844 0.001906
0.11847 0.001906
0.11850 0.001906
0.11853 0.001906
0.11856 0.001906
0.11859 0.001906
0.11862 0.001906
0.11865 0.001906
0.11868 0.001906
0.11871 0.001906
0.11874 0.001906
0.11877 0.001906
0.11880 0.001906
0.11883 0.001906
0.11886 0.001906
0.11889 0.001906
0.11892 0.001906
0.11895 0.001906
0.11898 0.001906
0.11901 0.001906
0.11904 0.001906
0.11907 0.001906
0.11910 0.001906
0.11913 0.001906
0.11916 0.001906
0.11919 0.001906
0.11922 0.001906
0.11925 0.001906
0.11928 0.001906
0.11931 0.001906
0.11934 0.001906
0.11937 0.001906
0.11940 0.001906
0.11943 0.001906
0.11946 0.001906
0.11949 0.001906
0.11952 0.001906
0.11955 0.001906
0.11958 0.001906
0.11961 0.001906
0.11964 0.001906
0.11967 0.001271
0.11970 0.001271
0.11973 0.001271
0.11976 0.001271
0.11979 0.001271
0.11982 0.001271
0.11985 0.001271
0.11988 0.001271
0.11991 0.001271
0.11994 0.001271
0.11997 0.001271
0.12000 0.001271
0.12003 0.001271
0.12006 0.001271
0.12009 0.001271
0.12012 0.001271
0.12015 0.001271
0.12018 0.001271
0.12021 0.001271
0.12024 0.001271
0.12027 0.001271
0.12030 0.001271
0.12033 0.001271
0.12036 0.001271
0.12039 0.001271
0.12042 0.001271
0.12045 0.001271
0.12048 0.001271
0.12051 0.001271
0.12054 0.001271
0.12057 0.001271
0.12060 0.001271
0.12063 0.001271
0.12066 0.001271
0.12069 0.001271
0.12072 0.001271
0.12075 0.001271
0.12078 0.001271
0.12081 0.001271
0.12084 0.001271
0.12087 0.001271
0.12090 0.001271
0.12093 0.001271
0.12096 0.001271
0.12099 0.001271
0.12102 0.001271
0.12105 0.001271
0.12108 0.001271
0.12111 0.001271
0.12114 0.001271
0.12117 0.001271
0.12120 0.001271
0.12123 0.001271
0.12126 0.001271
0.12129 0.001271
0.12132 0.001271
0.12135 0.001271
0.12138 0.001271
0.12141 0.001271
0.12144 0.001271
0.12147 0.001271
0.12150 0.001271
0.12153 0.001271
0.12156 0.001271
0.12159 0.001271
0.12162 0.001271
0.12165 0.001271
0.12168 0.001271
0.12171 0.001271
0.12174 0.001271
0.12177 0.001271
0.12180 0.001271
0.12183 0.001271
0.12186 0.001271
0.12189 0.001271
0.12192 0.001271
0.12195 0.001271
0.12198 0.001271
0.12201 0.001271
0.12204 0.001271
0.12207 0.001271
0.12210 0.001271
0.12213 0.001271
0.12216 0.001271
0.12219 0.001271
0.12222 0.001271
0.12225 0.001271
0.12228 0.001271
0.12231 0.001271
0.12234 0.001271
0.12237 0.001271
0.12240 0.001271
0.12243 0.001271
0.12246 0.001271
0.12249 0.001271
0.12252 0.001271
0.12255 0.001271
0.12258 0.001271
0.12261 0.001271
0.12264 0.001271
0.12267 0.001271
0.12270 0.001271
0.12273 0.001271
0.12276 0.001271
0.12279 0.001271
0.12282 0.001271
0.12285 0.001271
0.12288 0.001271
0.12291 0.001271
0.12294 0.001271
0.12297 0.001271
0.12300 0.001271
0.12303 0.001271
0.12306 0.001271
0.12309 0.001271
0.12312 0.001271
0.12315 0.001271
0.12318 0.001271
0.12321 0.001271
0.12324 0.001271
0.12327 0.001271
0.12330 0.001271
0.12333 0.001271
0.12336 0.001271
0.12339 0.001271
0.12342 0.001271
0.12345 0.001271
0.12348 0.001271
0.12351 0.001271
0.12354 0.001271
0.12357 0.001271
0.12360 0.001271
0.12363 0.001271
0.12366 0.001271
0.12369 0.001271
0.12372 0.001271
0.12375 0.001271
0.12378 0.001271
0.12381 0.001271
0.12384 0.001271
0.12387 0.001271
0.12390 0.001271
0.12393 0.001271
0.12396 0.001271
0.12399 0.001271
0.12402 0.001271
0.12405 0.001271
0.12408 0.001271
0.12411 0.001271
0.12414 0.001271
0.12417 0.001271
0.12420 0.001271
0.12423 0.001271
0.12426 0.001271
0.12429 0.001271
0.12432 0.001271
0.12435 0.001271
0.12438 0.001271
0.12441 0.001271
0.12444 0.001271
0.12447 0.001271
0.12450 0.001271
0.12453 0.001271
0.12456 0.001271
0.12459 0.001271
0.12462 0.001271
0.12465 0.001271
0.12468 0.001271
0.12471 0.001271
0.12474 0.001271
0.12477 0.001271
0.12480 0.001271
0.12483 0.001271
0.12486 0.001271
0.12489 0.001271
0.12492 0.001271
0.12495 0.001271
0.12498 0.001271
0.12501 0.001271
0.12504 0.001271
0.12507 0.001271
0.12510 0.001271
0.12513 0.001271
0.12516 0.001271
0.12519 0.001271
0.12522 0.001271
0.12525 0.001271
0.12528 0.001271
0.12531 0.001271
0.12534 0.001271
0.12537 0.001271
0.12540 0.001271
0.12543 0.001271
0.12546 0.001271
0.12549 0.001271
0.12552 0.001271
0.12555 0.001271
0.12558 0.001271
0.12561 0.001271
0.12564 0.001271
0.12567 0.001271
0.12570 0.001271
0.12573 0.001271
0.12576 0.001271
0.12579 0.001271
0.12582 0.001271
0.12585 0.001271
0.12588 0.001271
0.12591 0.001271
0.12594 0.001271
0.12597 0.000635
0.12600 0.000635
0.12603 0.000635
0.12606 0.000635
0.12609 0.000635
0.12612 0.000635
0.12615 0.000635
0.12618 0.000635
0.12621 0.000635
0.12624 0.000635
0.12627 0.000635
0.12630 0.000635
0.12633 0.000635
0.12636 0.000635
0.12639 0.000635
0.12642 0.000635
0.12645 0.000635
0.12648 0.000635
0.12651 0.000635
0.12654 0.000635
0.12657 0.000635
0.12660 0.000635
0.12663 0.000635
0.12666 0.000635
0.12669 0.000635
0.12672 0.000635
0.12675 0.000635
0.12678 0.000635
0.12681 0.000635
0.12684 0.000635
0.12687 0.000635
0.12690 0.000635
0.12693 0.000635
0.12696 0.000635
0.12699 0.000635
0.12702 0.000635
0.12705 0.000635
0.12708 0.000635
0.12711 0.000635
0.12714 0.000635
0.12717 0.000635
0.12720 0.000635
0.12723 0.000635
0.12726 0.000635
0.12729 0.000635
0.12732 0.000635
0.12735 0.000635
0.12738 0.000635
0.12741 0.000635
0.12744 0.000635
0.12747 0.000635
0.12750 0.000635
0.12753 0.000635
0.12756 0.000635
0.12759 0.000635
0.12762 0.000635
0.12765 0.000635
0.12768 0.000635
0.12771 0.000635
0.12774 0.000635
0.12777 0.000635
0.12780 0.000635
0.12783 0.000635
0.12786 0.000635
0.12789 0.000635
0.12792 0.000635
0.12795 0.000635
0.12798 0.000635
0.12801 0.000635
0.12804 0.000635
0.12807 0.000635
0.12810 0.000635
0.12813 0.000635
0.12816 0.000635
0.12819 0.000635
0.12822 0.000635
0.12825 0.000635
0.12828 0.000635
0.12831 0.000635
0.12834 0.000635
0.12837 0.000635
0.12840 0.000635
0.12843 0.000635
0.12846 0.000635
0.12849 0.000635
0.12852 0.000635
0.12855 0.000635
0.12858 0.000635
0.12861 0.000635
0.12864 0.000635
0.12867 0.000635
0.12870 0.000635
0.12873 0.000635
0.12876 0.000635
0.12879 0.000635
0.12882 0.000635
0.12885 0.000635
0.12888 0.000635
0.12891 0.000635
0.12894 0.000635
0.12897 0.000635
0.12900 0.000635
0.12903 0.000635
0.12906 0.000635
0.12909 0.000635
0.12912 0.000635
0.12915 0.000635
0.12918 0.000635
0.12921 0.000635
0.12924 0.000635
0.12927 0.000635
0.12930 0.000635
0.12933 0.000635
0.12936 0.000635
0.12939 0.000635
0.12942 0.000635
0.12945 0.000635
0.12948 0.000635
0.12951 0.000635
0.12954 0.000635
0.12957 0.000635
0.12960 0.000635
0.12963 0.000635
0.12966 0.000635
0.12969 0.000635
0.12972 0.000635
0.12975 0.000635
0.12978 0.000635
0.12981 0.000635
0.12984 0.000635
0.12987 0.000635
0.12990 0.000635
0.12993 0.000635
0.12996 0.000635
0.12999 0.000635
0.13002 0.000635
0.13005 0.000635
0.13008 0.000635
0.13011 0.000635
0.13014 0.000635
0.13017 0.000635
0.13020 0.000635
0.13023 0.000635
0.13026 0.000635
0.13029 0.000635
0.13032 0.000635
0.13035 0.000635
0.13038 0.000635
0.13041 0.000635
0.13044 0.000635
0.13047 0.000635
0.13050 0.000635
0.13053 0.000635
0.13056 0.000635
0.13059 0.000635
0.13062 0.000635
0.13065 0.000635
0.13068 0.000635
0.13071 0.000635
0.13074 0.000635
0.13077 0.000635
0.13080 0.000635
0.13083 0.000635
0.13086 0.000635
0.13089 0.000635
0.13092 0.000635
0.13095 0.000635
0.13098 0.000635
0.13101 0.000635
0.13104 0.000635
0.13107 0.000635
0.13110 0.000635
0.13113 0.000635
0.13116 0.000635
0.13119 0.000635
0.13122 0.000635
0.13125 0.000635
0.13128 0.000635
0.13131 0.000635
0.13134 0.000635
0.13137 0.000635
0.13140 0.000635
0.13143 0.000635
0.13146 0.000635
0.13149 0.000635
0.13152 0.000635
0.13155 0.000635
0.13158 0.000635
0.13161 0.000635
0.13164 0.000635
0.13167 0.000635
0.13170 0.000635
0.13173 0.000635
0.13176 0.000635
0.13179 0.000635
0.13182 0.000635
0.13185 0.000635
0.13188 0.000635
0.13191 0.000635
0.13194 0.000635
0.13197 0.000635
0.13200 0.000635
0.13203 0.000635
0.13206 0.000635
0.13209 0.000635
0.13212 0.000635
0.13215 0.000635
0.13218 0.000635
0.13221 0.000635
0.13224 0.000635
0.13227 0.000635
0.13230 0.000635
0.13233 0.000635
0.13236 0.000635
0.13239 0.000635
0.13242 0.000635
0.13245 0.000635
0.13248 0.000635
0.13251 0.000635
0.13254 0.000635
0.13257 0.000635
0.13260 0.000635
0.13263 0.000635
0.13266 0.000635
0.13269 0.000635
0.13272 0.000635
0.13275 0.000635
0.13278 0.000635
0.13281 0.000635
0.13284 0.000635
0.13287 0.000635
0.13290 0.000635
0.13293 0.000635
0.13296 0.000635
0.13299 0.000635
0.13302 0.000635
0.13305 0.000635
0.13308 0.000635
0.13311 0.000635
0.13314 0.000635
0.13317 0.000635
0.13320 0.000635
0.13323 0.000635
0.13326 0.000635
0.13329 0.000635
0.13332 0.000635
0.13335 0.000635
0.13338 0.000635
0.13341 0.000635
0.13344 0.000635
0.13347 0.000635
0.13350 0.000635
0.13353 0.000635
0.13356 0.000635
0.13359 0.000635
0.13362 0.000635
0.13365 0.000635
0.13368 0.000635
0.13371 0.000635
0.13374 0.000635
0.13377 0.000635
0.13380 0.000635
0.13383 0.000635
0.13386 0.000635
0.13389 0.000635
0.13392 0.000635
0.13395 0.000635
0.13398 0.000635
0.13401 0.000635
0.13404 0.000635
0.13407 0.000635
0.13410 0.000635
0.13413 0.000635
0.13416 0.000635
0.13419 0.000635
0.13422 0.000635
0.13425 0.000635
0.13428 0.000635
0.13431 0.000635
0.13434 0.000635
0.13437 0.000635
0.13440 0.000635
0.13443 0.000635
0.13446 0.000635
0.13449 0.000635
0.13452 0.000635
0.13455 0.000635
0.13458 0.000635
0.13461 0.000635
0.13464 0.000635
0.13467 0.000635
0.13470 0.000635
0.13473 0.000635
0.13476 0.000635
0.13479 0.000635
0.13482 0.000635
0.13485 0.000635
0.13488 0.000635
0.13491 0.000635
0.13494 0.000635
0.13497 0.000635
0.13500 0.000635
0.13503 0.000635
0.13506 0.000635
0.13509 0.000635
0.13512 0.000635
0.13515 0.000635
0.13518 0.000635
0.13521 0.000635
0.13524 0.000635
0.13527 0.000635
0.13530 0.000635
0.13533 0.000635
0.13536 0.000635
0.13539 0.000635
0.13542 0.000635
0.13545 0.000635
0.13548 0.000635
0.13551 0.000635
0.13554 0.000635
0.13557 0.000635
0.13560 0.000635
0.13563 0.000635
0.13566 0.000635
0.13569 0.000635
0.13572 0.000635
0.13575 0.000635
0.13578 0.000635
0.13581 0.000635
0.13584 0.000635
0.13587 0.000635
0.13590 0.000635
0.13593 0.000635
0.13596 0.000635
0.13599 0.000635
0.13602 0.000635
0.13605 0.000635
0.13608 0.000635
0.13611 0.000635
0.13614 0.000635
0.13617 0.000635
0.13620 0.000635
0.13623 0.000635
0.13626 0.000635
0.13629 0.000635
0.13632 0.000635
0.13635 0.000635
0.13638 0.000635
0.13641 0.000635
0.13644 0.000635
0.13647 0.000635
0.13650 0.000635
0.13653 0.000635
0.13656 0.000635
0.13659 0.000635
0.13662 0.000635
0.13665 0.000635
0.13668 0.000635
0.13671 0.000635
0.13674 0.000635
0.13677 0.000635
0.13680 0.000635
0.13683 0.000635
0.13686 0.000635
0.13689 0.000635
0.13692 0.000635
0.13695 0.000635
0.13698 0.000635
0.13701 0.000635
0.13704 0.000635
0.13707 0.000635
0.13710 0.000635
0.13713 0.000635
0.13716 0.000635
0.13719 0.000635
0.13722 0.000635
0.13725 0.000635
0.13728 0.000635
0.13731 0.000635
0.13734 0.000635
0.13737 0.000635
0.13740 0.000635
0.13743 0.000635
0.13746 0.000635
0.13749 0.000635
0.13752 0.000635
0.13755 0.000635
0.13758 0.000635
0.13761 0.000635
0.13764 0.000635
0.13767 0.000635
0.13770 0.000635
0.13773 0.000635
0.13776 0.000635
0.13779 0.000635
0.13782 0.000635
0.13785 0.000635
0.13788 0.000635
0.13791 0.000635
0.13794 0.000635
0.13797 0.000635
0.13800 0.000635
0.13803 0.000635
0.13806 0.000635
0.13809 0.000635
0.13812 0.000635
0.13815 0.000635
0.13818 0.000635
0.13821 0.000635
0.13824 0.000635
0.13827 0.000635
0.13830 0.000635
0.13833 0.000635
0.13836 0.000635
0.13839 0.000635
0.13842 0.000635
0.13845 0.000635
0.13848 0.000635
0.13851 0.000635
0.13854 0.000635
0.13857 0.000635
0.13860 0.000635
0.13863 0.000635
0.13866 0.000635
0.13869 0.000635
0.13872 0.000635
0.13875 0.000635
0.13878 0.000635
0.13881 0.000635
0.13884 0.000635
0.13887 0.000635
0.13890 0.000635
0.13893 0.000635
0.13896 0.000635
0.13899 0.000635
0.13902 0.000635
0.13905 0.000635
0.13908 0.000635
0.13911 0.000635
0.13914 0.000635
0.13917 0.000635
0.13920 0.000635
0.13923 0.000635
0.13926 0.000635
0.13929 0.000635
0.13932 0.000635
0.13935 0.000635
0.13938 0.000635
0.13941 0.000635
0.13944 0.000635
0.13947 0.000635
0.13950 0.000635
0.13953 0.000635
0.13956 0.000635
0.13959 0.000635
0.13962 0.000635
0.13965 0.000635
0.13968 0.000635
0.13971 0.000635
0.13974 0.000635
0.13977 0.000635
0.13980 0.000635
0.13983 0.000635
0.13986 0.000635
0.13989 0.000635
0.13992 0.000635
0.13995 0.000635
0.13998 0.000635
0.14001 0.000635
0.14004 0.000635
0.14007 0.000635
0.14010 0.000635
0.14013 0.000635
0.14016 0.000635
0.14019 0.000635
0.14022 0.000635
0.14025 0.000635
0.14028 0.000635
0.14031 0.000635
0.14034 0.000635
0.14037 0.000635
0.14040 0.000635
0.14043 0.000635
0.14046 0.000635
0.14049 0.000635
0.14052 0.000635
0.14055 0.000635
0.14058 0.000635
0.14061 0.000635
0.14064 0.000635
0.14067 0.000635
0.14070 0.000635
0.14073 0.000635
0.14076 0.000635
0.14079 0.000635
0.14082 0.000635
0.14085 0.000635
0.14088 0.000635
0.14091 0.000635
0.14094 0.000635
0.14097 0.000635
0.14100 0.000635
0.14103 0.000635
0.14106 0.000635
0.14109 0.000635
0.14112 0.000635
0.14115 0.000635
0.14118 0.000635
0.14121 0.000635
0.14124 0.000635
0.14127 0.000635
0.14130 0.000635
0.14133 0.000635
0.14136 0.000635
0.14139 0.000635
0.14142 0.000635
0.14145 0.000635
0.14148 0.000635
0.14151 0.000635
0.14154 0.000635
0.14157 0.000635
0.14160 0.000635
0.14163 0.000635
0.14166 0.000635
0.14169 0.000635
0.14172 0.000635
0.14175 0.000635
0.14178 0.000635
0.14181 0.000635
0.14184 0.000635
0.14187 0.000635
0.14190 0.000635
0.14193 0.000635
0.14196 0.000635
0.14199 0.000635
0.14202 0.000635
0.14205 0.000635
0.14208 0.000635
0.14211 0.000635
0.14214 0.000635
0.14217 0.000635
0.14220 0.000635
0.14223 0.000635
0.14226 0.000635
0.14229 0.000635
0.14232 0.000635
0.14235 0.000635
0.14238 0.000635
0.14241 0.000635
0.14244 0.000635
0.14247 0.000635
0.14250 0.000635
0.14253 0.000635
0.14256 0.000635
0.14259 0.000635
0.14262 0.000635
0.14265 0.000635
0.14268 0.000635
0.14271 0.000635
0.14274 0.000635
0.14277 0.000635
0.14280 0.000635
0.14283 0.000635
0.14286 0.000635
0.14289 0.000635
0.14292 0.000635
0.14295 0.000635
0.14298 0.000635
0.14301 0.000635
0.14304 0.000635
0.14307 0.000635
0.14310 0.000635
0.14313 0.000635
0.14316 0.000635
0.14319 0.000635
0.14322 0.000635
0.14325 0.000635
0.14328 0.000635
0.14331 0.000635
0.14334 0.000635
0.14337 0.000635
0.14340 0.000635
0.14343 0.000635
0.14346 0.000635
0.14349 0.000635
0.14352 0.000635
0.14355 0.000635
0.14358 0.000635
0.14361 0.000635
0.14364 0.000635
0.14367 0.000635
0.14370 0.000635
0.14373 0.000635
0.14376 0.000635
0.14379 0.000635
0.14382 0.000635
0.14385 0.000635
0.14388 0.000635
0.14391 0.000635
0.14394 0.000635
0.14397 0.000635
0.14400 0.000635
0.14403 0.000635
0.14406 0.000635
0.14409 0.000635
0.14412 0.000635
0.14415 0.000635
0.14418 0.000635
0.14421 0.000635
0.14424 0.000635
0.14427 0.000635
0.14430 0.000635
0.14433 0.000635
0.14436 0.000635
0.14439 0.000635
0.14442 0.000635
0.14445 0.000635
0.14448 0.000635
0.14451 0.000635
0.14454 0.000635
0.14457 0.000635
0.14460 0.000635
0.14463 0.000635
0.14466 0.000635
0.14469 0.000635
0.14472 0.000635
0.14475 0.000635
0.14478 0.000635
0.14481 0.000635
0.14484 0.000635
0.14487 0.000635
0.14490 0.000635
0.14493 0.000635
0.14496 0.000635
0.14499 0.000635
0.14502 0.000635
0.14505 0.000635
0.14508 0.000635
0.14511 0.000635
0.14514 0.000635
0.14517 0.000635
0.14520 0.000635
0.14523 0.000635
0.14526 0.000635
0.14529 0.000635
0.14532 0.000635
0.14535 0.000635
0.14538 0.000635
0.14541 0.000635
0.14544 0.000635
0.14547 0.000635
0.14550 0.000635
0.14553 0.000635
0.14556 0.000635
0.14559 0.000635
0.14562 0.000635
0.14565 0.000635
0.14568 0.000635
0.14571 0.000635
0.14574 0.000635
0.14577 0.000635
0.14580 0.000635
0.14583 0.000635
0.14586 0.000635
0.14589 0.000635
0.14592 0.000635
0.14595 0.000635
0.14598 0.000635
0.14601 0.000635
0.14604 0.000635
0.14607 0.000635
0.14610 0.000635
0.14613 0.000635
0.14616 0.000635
0.14619 0.000635
0.14622 0.000635
0.14625 0.000635
0.14628 0.000635
0.14631 0.000635
0.14634 0.000635
0.14637 0.000635
0.14640 0.000635
0.14643 0.000635
0.14646 0.000635
0.14649 0.000635
0.14652 0.000635
0.14655 0.000635
0.14658 0.000635
0.14661 0.000635
0.14664 0.000635
0.14667 0.000635
0.14670 0.000635
0.14673 0.000635
0.14676 0.000635
0.14679 0.000635
0.14682 0.000635
0.14685 0.000635
0.14688 0.000635
0.14691 0.000635
0.14694 0.000635
0.14697 0.000635
0.14700 0.000635
0.14703 0.000635
0.14706 0.000635
0.14709 0.000635
0.14712 0.000635
0.14715 0.000635
0.14718 0.000635
0.14721 0.000635
0.14724 0.000635
0.14727 0.000635
0.14730 0.000635
0.14733 0.000635
0.14736 0.000635
0.14739 0.000635
0.14742 0
0.14745 0
0.14748 0
0.14751 0
0.14754 0
0.14757 0
0.14760 0
0.14763 0
0.14766 0
0.14769 0
0.14772 0
0.14775 0
0.14778 0
0.14781 0
0.14784 0
0.14787 0
0.14790 0
0.14793 0
0.14796 0
0.14799 0
0.14802 0
0.14805 0
0.14808 0
0.14811 0
0.14814 0
0.14817 0
0.14820 0
0.14823 0
0.14826 0
0.14829 0
0.14832 0
0.14835 0
0.14838 0
0.14841 0
0.14844 0
0.14847 0
0.14850 0
0.14853 0
0.14856 0
0.14859 0
0.14862 0
0.14865 0
0.14868 0
0.14871 0
0.14874 0
0.14877 0
0.14880 0
0.14883 0
0.14886 0
0.14889 0
0.14892 0
0.14895 0
0.14898 0
0.14901 0
0.14904 0
0.14907 0
0.14910 0
0.14913 0
0.14916 0
0.14919 0
0.14922 0
0.14925 0
0.14928 0
0.14931 0
0.14934 0
0.14937 0
0.14940 0
0.14943 0
0.14946 0
0.14949 0
0.14952 0
0.14955 0
0.14958 0
0.14961 0
0.14964 0
0.14967 0
0.14970 0
0.14973 0
0.14976 0
0.14979 0
0.14982 0
0.14985 0
0.14988 0
0.14991 0
0.14994 0
0.14997 0
0.15000 0
0.15003 0
0.15006 0
0.15009 0
0.15012 0
0.15015 0
0.15018 0
0.15021 0
0.15024 0
0.15027 0
0.15030 0
0.15033 0
0.15036 0
0.15039 0
0.15042 0
0.15045 0
0.15048 0
0.15051 0
0.15054 0
0.15057 0
0.15060 0
0.15063 0
0.15066 0
0.15069 0
0.15072 0
0.15075 0
0.15078 0
0.15081 0
0.15084 0
0.15087 0
0.15090 0
0.15093 0
0.15096 0
0.15099 0
0.15102 0
0.15105 0
0.15108 0
0.15111 0
0.15114 0
0.15117 0
0.15120 0
0.15123 0
0.15126 0
0.15129 0
0.15132 0
0.15135 0
0.15138 0
0.15141 0
0.15144 0
0.15147 0
0.15150 0
0.15153 0
0.15156 0
0.15159 0
0.15162 0
0.15165 0
0.15168 0
0.15171 0
0.15174 0
0.15177 0
0.15180 0
0.15183 0
0.15186 0
0.15189 0
0.15192 0
0.15195 0
0.15198 0
0.15201 0
0.15204 0
0.15207 0
0.15210 0
0.15213 0
0.15216 0
0.15219 0
0.15222 0
0.15225 0
0.15228 0
0.15231 0
0.15234 0
0.15237 0
0.15240 0
0.15243 0
0.15246 0
0.15249 0
0.15252 0
0.15255 0
0.15258 0
0.15261 0
0.15264 0
0.15267 0
0.15270 0
0.15273 0
0.15276 0
0.15279 0
0.15282 0
0.15285 0
0.15288 0
0.15291 0
0.15294 0
0.15297 0
0.15300 0
0.15303 0
0.15306 0
0.15309 0
0.15312 0
0.15315 0
0.15318 0
0.15321 0
0.15324 0
0.15327 0
0.15330 0
0.15333 0
0.15336 0
0.15339 0
0.15342 0
0.15345 0
0.15348 0
0.15351 0
0.15354 0
0.15357 0
0.15360 0
0.15363 0
0.15366 0
0.15369 0
0.15372 0
0.15375 0
0.15378 0
0.15381 0
0.15384 0
0.15387 0
0.15390 0
0.15393 0
0.15396 0
0.15399 0
0.15402 0
0.15405 0
0.15408 0
0.15411 0
0.15414 0
0.15417 0
0.15420 0
0.15423 0
0.15426 0
0.15429 0
0.15432 0
0.15435 0
0.15438 0
0.15441 0
0.15444 0
0.15447 0
0.15450 0
0.15453 0
0.15456 0
0.15459 0
0.15462 0
0.15465 0
0.15468 0
0.15471 0
0.15474 0
0.15477 0
0.15480 0
0.15483 0
0.15486 0
0.15489 0
0.15492 0
0.15495 0
0.15498 0
0.15501 0
0.15504 0
0.15507 0
0.15510 0
0.15513 0
0.15516 0
0.15519 0
0.15522 0
0.15525 0
0.15528 0
0.15531 0
0.15534 0
0.15537 0
0.15540 0
0.15543 0
0.15546 0
0.15549 0
0.15552 0
0.15555 0
0.15558 0
0.15561 0
0.15564 0
0.15567 0
0.15570 0
0.15573 0
0.15576 0
0.15579 0
0.15582 0
0.15585 0
0.15588 0
0.15591 0
0.15594 0
0.15597 0
0.15600 0
0.15603 0
0.15606 0
0.15609 0
0.15612 0
0.15615 0
0.15618 0
0.15621 0
0.15624 0
0.15627 0
0.15630 0
0.15633 0
0.15636 0
0.15639 0
0.15642 0
0.15645 0
0.15648 0
0.15651 0
0.15654 0
0.15657 0
0.15660 0
0.15663 0
0.15666 0
0.15669 0
0.15672 0
0.15675 0
0.15678 0
0.15681 0
0.15684 0
0.15687 0
0.15690 0
0.15693 0
0.15696 0
0.15699 0
0.15702 0
0.15705 0
0.15708 0
0.15711 0
0.15714 0
0.15717 0
0.15720 0
0.15723 0
0.15726 0
0.15729 0
0.15732 0
0.15735 0
0.15738 0
0.15741 0
0.15744 0
0.15747 0
0.15750 0
0.15753 0
0.15756 0
0.15759 0
0.15762 0
0.15765 0
0.15768 0
0.15771 0
0.15774 0
0.15777 0
0.15780 0
0.15783 0
0.15786 0
0.15789 0
0.15792 0
0.15795 0
0.15798 0
0.15801 0
0.15804 0
0.15807 0
0.15810 0
0.15813 0
0.15816 0
0.15819 0
0.15822 0
0.15825 0
0.15828 0
0.15831 0
0.15834 0
0.15837 0
0.15840 0
0.15843 0
0.15846 0
0.15849 0
0.15852 0
0.15855 0
0.15858 0
0.15861 0
0.15864 0
0.15867 0
0.15870 0
0.15873 0
0.15876 0
0.15879 0
0.15882 0
0.15885 0
0.15888 0
0.15891 0
0.15894 0
0.15897 0
0.15900 0
0.15903 0
0.15906 0
0.15909 0
0.15912 0
0.15915 0
0.15918 0
0.15921 0
0.15924 0
0.15927 0
0.15930 0
0.15933 0
0.15936 0
0.15939 0
0.15942 0
0.15945 0
0.15948 0
0.15951 0
0.15954 0
0.15957 0
0.15960 0
0.15963 0
0.15966 0
0.15969 0
0.15972 0
0.15975 0
0.15978 0
0.15981 0
0.15984 0
0.15987 0
0.15990 0
0.15993 0
0.15996 0
0.15999 0
0.16002 0
0.16005 0
0.16008 0
0.16011 0
0.16014 0
0.16017 0
0.16020 0
0.16023 0
0.16026 0
0.16029 0
0.16032 0
0.16035 0
0.16038 0
0.16041 0
0.16044 0
0.16047 0
0.16050 0
0.16053 0
0.16056 0
0.16059 0
0.16062 0
0.16065 0
0.16068 0
0.16071 0
0.16074 0
0.16077 0
0.16080 0
0.16083 0
0.16086 0
0.16089 0
0.16092 0
0.16095 0
0.16098 0
0.16101 0
0.16104 0
0.16107 0
0.16110 0
0.16113 0
0.16116 0
0.16119 0
0.16122 0
0.16125 0
0.16128 0
0.16131 0
0.16134 0
0.16137 0
0.16140 0
0.16143 0
0.16146 0
0.16149 0
0.16152 0
0.16155 0
0.16158 0
0.16161 0
0.16164 0
0.16167 0
0.16170 0
0.16173 0
0.16176 0
0.16179 0
0.16182 0
0.16185 0
0.16188 0
0.16191 0
0.16194 0
0.16197 0
0.16200 0
0.16203 0
0.16206 0
0.16209 0
0.16212 0
0.16215 0
0.16218 0
0.16221 0
0.16224 0
0.16227 0
0.16230 0
0.16233 0
0.16236 0
0.16239 0
0.16242 0
0.16245 0
0.16248 0
0.16251 0
0.16254 0
0.16257 0
0.16260 0
0.16263 0
0.16266 0
0.16269 0
0.16272 0
0.16275 0
0.16278 0
0.16281 0
0.16284 0
0.16287 0
0.16290 0
0.16293 0
0.16296 0
0.16299 0
0.16302 0
0.16305 0
0.16308 0
0.16311 0
0.16314 0
0.16317 0
0.16320 0
0.16323 0
0.16326 0
0.16329 0
0.16332 0
0.16335 0
0.16338 0
0.16341 0
0.16344 0
0.16347 0
0.16350 0
0.16353 0
0.16356 0
0.16359 0
0.16362 0
0.16365 0
0.16368 0
0.16371 0
0.16374 0
0.16377 0
0.16380 0
0.16383 0
0.16386 0
0.16389 0
0.16392 0
0.16395 0
0.16398 0
0.16401 0
0.16404 0
0.16407 0
0.16410 0
0.16413 0
0.16416 0
0.16419 0
0.16422 0
0.16425 0
0.16428 0
0.16431 0
0.16434 0
0.16437 0
0.16440 0
0.16443 0
0.16446 0
0.16449 0
0.16452 0
0.16455 0
0.16458 0
0.16461 0
0.16464 0
0.16467 0
0.16470 0
0.16473 0
0.16476 0
0.16479 0
0.16482 0
0.16485 0
0.16488 0
0.16491 0
0.16494 0
0.16497 0
0.16500 0
0.16503 0
0.16506 0
0.16509 0
0.16512 0
0.16515 0
0.16518 0
0.16521 0
0.16524 0
0.16527 0
0.16530 0
0.16533 0
0.16536 0
0.16539 0
0.16542 0
0.16545 0
0.16548 0
0.16551 0
0.16554 0
0.16557 0
0.16560 0
0.16563 0
0.16566 0
0.16569 0
0.16572 0
0.16575 0
0.16578 0
0.16581 0
0.16584 0
0.16587 0
0.16590 0
0.16593 0
0.16596 0
0.16599 0
0.16602 0
0.16605 0
0.16608 0
0.16611 0
0.16614 0
0.16617 0
0.16620 0
0.16623 0
0.16626 0
0.16629 0
0.16632 0
0.16635 0
0.16638 0
0.16641 0
0.16644 0
0.16647 0
0.16650 0
0.16653 0
0.16656 0
0.16659 0
0.16662 0
0.16665 0
0.16668 0
0.16671 0
0.16674 0
0.16677 0
0.16680 0
0.16683 0
0.16686 0
0.16689 0
0.16692 0
0.16695 0
0.16698 0
0.16701 0
0.16704 0
0.16707 0
0.16710 0
0.16713 0
0.16716 0
0.16719 0
0.16722 0
0.16725 0
0.16728 0
0.16731 0
0.16734 0
0.16737 0
0.16740 0
0.16743 0
0.16746 0
0.16749 0
0.16752 0
0.16755 0
0.16758 0
0.16761 0
0.16764 0
0.16767 0
0.16770 0
0.16773 0
0.16776 0
0.16779 0
0.16782 0
0.16785 0
0.16788 0
0.16791 0
0.16794 0
0.16797 0
0.16800 0
0.16803 0
0.16806 0
0.16809 0
0.16812 0
0.16815 0
0.16818 0
0.16821 0
0.16824 0
0.16827 0
0.16830 0
0.16833 0
0.16836 0
0.16839 0
0.16842 0
0.16845 0
0.16848 0
0.16851 0
0.16854 0
0.16857 0
0.16860 0
0.16863 0
0.16866 0
0.16869 0
0.16872 0
0.16875 0
0.16878 0
0.16881 0
0.16884 0
0.16887 0
0.16890 0
0.16893 0
0.16896 0
0.16899 0
0.16902 0
0.16905 0
0.16908 0
0.16911 0
0.16914 0
0.16917 0
0.16920 0
0.16923 0
0.16926 0
0.16929 0
0.16932 0
0.16935 0
0.16938 0
0.16941 0
0.16944 0
0.16947 0
0.16950 0
0.16953 0
0.16956 0
0.16959 0
0.16962 0
0.16965 0
0.16968 0
0.16971 0
0.16974 0
0.16977 0
0.16980 0
0.16983 0
0.16986 0
0.16989 0
0.16992 0
0.16995 0
0.16998 0
0.17001 0
0.17004 0
0.17007 0
0.17010 0
0.17013 0
0.17016 0
0.17019 0
0.17022 0
0.17025 0
0.17028 0
0.17031 0
0.17034 0
0.17037 0
0.17040 0
0.17043 0
0.17046 0
0.17049 0
0.17052 0
0.17055 0
0.17058 0
0.17061 0
0.17064 0
0.17067 0
0.17070 0
0.17073 0
0.17076 0
0.17079 0
0.17082 0
0.17085 0
0.17088 0
0.17091 0
0.17094 0
0.17097 0
0.17100 0
0.17103 0
0.17106 0
0.17109 0
0.17112 0
0.17115 0
0.17118 0
0.17121 0
0.17124 0
0.17127 0
0.17130 0
0.17133 0
0.17136 0
0.17139 0
0.17142 0
0.17145 0
0.17148 0
0.17151 0
0.17154 0
0.17157 0
0.17160 0
0.17163 0
0.17166 0
0.17169 0
0.17172 0
0.17175 0
0.17178 0
0.17181 0
0.17184 0
0.17187 0
0.17190 0
0.17193 0
0.17196 0
0.17199 0
0.17202 0
0.17205 0
0.17208 0
0.17211 0
0.17214 0
0.17217 0
0.17220 0
0.17223 0
0.17226 0
0.17229 0
0.17232 0
0.17235 0
0.17238 0
0.17241 0
0.17244 0
0.17247 0
0.17250 0
0.17253 0
0.17256 0
0.17259 0
0.17262 0
0.17265 0
0.17268 0
0.17271 0
0.17274 0
0.17277 0
0.17280 0
0.17283 0
0.17286 0
0.17289 0
0.17292 0
0.17295 0
0.17298 0
0.17301 0
0.17304 0
0.17307 0
0.17310 0
0.17313 0
0.17316 0
0.17319 0
0.17322 0
0.17325 0
0.17328 0
0.17331 0
0.17334 0
0.17337 0
0.17340 0
0.17343 0
0.17346 0
0.17349 0
0.17352 0
0.17355 0
0.17358 0
0.17361 0
0.17364 0
0.17367 0
0.17370 0
0.17373 0
0.17376 0
0.17379 0
0.17382 0
0.17385 0
0.17388 0
0.17391 0
0.17394 0
0.17397 0
0.17400 0
0.17403 0
0.17406 0
0.17409 0
0.17412 0
0.17415 0
0.17418 0
0.17421 0
0.17424 0
0.17427 0
0.17430 0
0.17433 0
0.17436 0
0.17439 0
0.17442 0
0.17445 0
0.17448 0
0.17451 0
0.17454 0
0.17457 0
0.17460 0
0.17463 0
0.17466 0
0.17469 0
0.17472 0
0.17475 0
0.17478 0
0.17481 0
0.17484 0
0.17487 0
0.17490 0
0.17493 0
0.17496 0
0.17499 0
0.17502 0
0.17505 0
0.17508 0
0.17511 0
0.17514 0
0.17517 0
0.17520 0
0.17523 0
0.17526 0
0.17529 0
0.17532 0
0.17535 0
0.17538 0
0.17541 0
0.17544 0
0.17547 0
0.17550 0
0.17553 0
0.17556 0
0.17559 0
0.17562 0
0.17565 0
0.17568 0
0.17571 0
0.17574 0
0.17577 0
0.17580 0
0.17583 0
0.17586 0
0.17589 0
0.17592 0
0.17595 0
0.17598 0
0.17601 0
0.17604 0
0.17607 0
0.17610 0
0.17613 0
0.17616 0
0.17619 0
0.17622 0
0.17625 0
0.17628 0
0.17631 0
0.17634 0
0.17637 0
0.17640 0
0.17643 0
0.17646 0
0.17649 0
0.17652 0
0.17655 0
0.17658 0
0.17661 0
0.17664 0
0.17667 0
0.17670 0
0.17673 0
0.17676 0
0.17679 0
0.17682 0
0.17685 0
0.17688 0
0.17691 0
0.17694 0
0.17697 0
0.17700 0
0.17703 0
0.17706 0
0.17709 0
0.17712 0
0.17715 0
0.17718 0
0.17721 0
0.17724 0
0.17727 0
0.17730 0
0.17733 0
0.17736 0
0.17739 0
0.17742 0
0.17745 0
0.17748 0
0.17751 0
0.17754 0
0.17757 0
0.17760 0
0.17763 0
0.17766 0
0.17769 0
0.17772 0
0.17775 0
0.17778 0
0.17781 0
0.17784 0
0.17787 0
0.17790 0
0.17793 0
0.17796 0
0.17799 0
0.17802 0
0.17805 0
0.17808 0
0.17811 0
0.17814 0
0.17817 0
0.17820 0
0.17823 0
0.17826 0
0.17829 0
0.17832 0
0.17835 0
0.17838 0
0.17841 0
0.17844 0
0.17847 0
0.17850 0
0.17853 0
0.17856 0
0.17859 0
0.17862 0
0.17865 0
0.17868 0
0.17871 0
0.17874 0
0.17877 0
0.17880 0
0.17883 0
0.17886 0
0.17889 0
0.17892 0
0.17895 0
0.17898 0
0.17901 0
0.17904 0
0.17907 0
0.17910 0
0.17913 0
0.17916 0
0.17919 0
0.17922 0
0.17925 0
0.17928 0
0.17931 0
0.17934 0
0.17937 0
0.17940 0
0.17943 0
0.17946 0
0.17949 0
0.17952 0
0.17955 0
0.17958 0
0.17961 0
0.17964 0
0.17967 0
0.17970 0
0.17973 0
0.17976 0
0.17979 0
0.17982 0
0.17985 0
0.17988 0
0.17991 0
0.17994 0
0.17997 0
0.18000 0
0.18003 0
0.18006 0
0.18009 0
0.18012 0
0.18015 0
0.18018 0
0.18021 0
0.18024 0
0.18027 0
0.18030 0
0.18033 0
0.18036 0
0.18039 0
0.18042 0
0.18045 0
0.18048 0
0.18051 0
0.18054 0
0.18057 0
0.18060 0
0.18063 0
0.18066 0
0.18069 0
0.18072 0
0.18075 0
0.18078 0
0.18081 0
0.18084 0
0.18087 0
0.18090 0
0.18093 0
0.18096 0
0.18099 0
0.18102 0
0.18105 0
0.18108 0
0.18111 0
0.18114 0
0.18117 0
0.18120 0
0.18123 0
0.18126 0
0.18129 0
0.18132 0
0.18135 0
0.18138 0
0.18141 0
0.18144 0
0.18147 0
0.18150 0
0.18153 0
0.18156 0
0.18159 0
0.18162 0
0.18165 0
0.18168 0
0.18171 0
0.18174 0
0.18177 0
0.18180 0
0.18183 0
0.18186 0
0.18189 0
0.18192 0
0.18195 0
0.18198 0
0.18201 0
0.18204 0
0.18207 0
0.18210 0
0.18213 0
0.18216 0
0.18219 0
0.18222 0
0.18225 0
0.18228 0
0.18231 0
0.18234 0
0.18237 0
0.18240 0
0.18243 0
0.18246 0
0.18249 0
0.18252 0
0.18255 0
0.18258 0
0.18261 0
0.18264 0
0.18267 0
0.18270 0
0.18273 0
0.18276 0
0.18279 0
0.18282 0
0.18285 0
0.18288 0
0.18291 0
0.18294 0
0.18297 0
0.18300 0
0.18303 0
0.18306 0
0.18309 0
0.18312 0
0.18315 0
0.18318 0
0.18321 0
0.18324 0
0.18327 0
0.18330 0
0.18333 0
0.18336 0
0.18339 0
0.18342 0
0.18345 0
0.18348 0
0.18351 0
0.18354 0
0.18357 0
0.18360 0
0.18363 0
0.18366 0
0.18369 0
0.18372 0
0.18375 0
0.18378 0
0.18381 0
0.18384 0
0.18387 0
0.18390 0
0.18393 0
0.18396 0
0.18399 0
0.18402 0
0.18405 0
0.18408 0
0.18411 0
0.18414 0
0.18417 0
0.18420 0
0.18423 0
0.18426 0
0.18429 0
0.18432 0
0.18435 0
0.18438 0
0.18441 0
0.18444 0
0.18447 0
0.18450 0
0.18453 0
0.18456 0
0.18459 0
0.18462 0
0.18465 0
0.18468 0
0.18471 0
0.18474 0
0.18477 0
0.18480 0
0.18483 0
0.18486 0
0.18489 0
0.18492 0
0.18495 0
0.18498 0
0.18501 0
0.18504 0
0.18507 0
0.18510 0
0.18513 0
0.18516 0
0.18519 0
0.18522 0
0.18525 0
0.18528 0
0.18531 0
0.18534 0
0.18537 0
0.18540 0
0.18543 0
0.18546 0
0.18549 0
0.18552 0
0.18555 0
0.18558 0
0.18561 0
0.18564 0
0.18567 0
0.18570 0
0.18573 0
0.18576 0
0.18579 0
0.18582 0
0.18585 0
0.18588 0
0.18591 0
0.18594 0
0.18597 0
0.18600 0
0.18603 0
0.18606 0
0.18609 0
0.18612 0
0.18615 0
0.18618 0
0.18621 0
0.18624 0
0.18627 0
0.18630 0
0.18633 0
0.18636 0
0.18639 0
0.18642 0
0.18645 0
0.18648 0
0.18651 0
0.18654 0
0.18657 0
0.18660 0
0.18663 0
0.18666 0
0.18669 0
0.18672 0
0.18675 0
0.18678 0
0.18681 0
0.18684 0
0.18687 0
0.18690 0
0.18693 0
0.18696 0
0.18699 0
0.18702 0
0.18705 0
0.18708 0
0.18711 0
0.18714 0
0.18717 0
0.18720 0
0.18723 0
0.18726 0
0.18729 0
0.18732 0
0.18735 0
0.18738 0
0.18741 0
0.18744 0
0.18747 0
0.18750 0
0.18753 0
0.18756 0
0.18759 0
0.18762 0
0.18765 0
0.18768 0
0.18771 0
0.18774 0
0.18777 0
0.18780 0
0.18783 0
0.18786 0
0.18789 0
0.18792 0
0.18795 0
0.18798 0
0.18801 0
0.18804 0
0.18807 0
0.18810 0
0.18813 0
0.18816 0
0.18819 0
0.18822 0
0.18825 0
0.18828 0
0.18831 0
0.18834 0
0.18837 0
0.18840 0
0.18843 0
0.18846 0
0.18849 0
0.18852 0
0.18855 0
0.18858 0
0.18861 0
0.18864 0
0.18867 0
0.18870 0
0.18873 0
0.18876 0
0.18879 0
0.18882 0
0.18885 0
0.18888 0
0.18891 0
0.18894 0
0.18897 0
0.18900 0
0.18903 0
0.18906 0
0.18909 0
0.18912 0
0.18915 0
0.18918 0
0.18921 0
0.18924 0
0.18927 0
0.18930 0
0.18933 0
0.18936 0
0.18939 0
0.18942 0
0.18945 0
0.18948 0
0.18951 0
0.18954 0
0.18957 0
0.18960 0
0.18963 0
0.18966 0
0.18969 0
0.18972 0
0.18975 0
0.18978 0
0.18981 0
0.18984 0
0.18987 0
0.18990 0
0.18993 0
0.18996 0
0.18999 0
0.19002 0
0.19005 0
0.19008 0
0.19011 0
0.19014 0
0.19017 0
0.19020 0
0.19023 0
0.19026 0
0.19029 0
0.19032 0
0.19035 0
0.19038 0
0.19041 0
0.19044 0
0.19047 0
0.19050 0
0.19053 0
0.19056 0
0.19059 0
0.19062 0
0.19065 0
0.19068 0
0.19071 0
0.19074 0
0.19077 0
0.19080 0
0.19083 0
0.19086 0
0.19089 0
0.19092 0
0.19095 0
0.19098 0
0.19101 0
0.19104 0
0.19107 0
0.19110 0
0.19113 0
0.19116 0
0.19119 0
0.19122 0
0.19125 0
0.19128 0
0.19131 0
0.19134 0
0.19137 0
0.19140 0
0.19143 0
0.19146 0
0.19149 0
0.19152 0
0.19155 0
0.19158 0
0.19161 0
0.19164 0
0.19167 0
0.19170 0
0.19173 0
0.19176 0
0.19179 0
0.19182 0
0.19185 0
0.19188 0
0.19191 0
0.19194 0
0.19197 0
0.19200 0
0.19203 0
0.19206 0
0.19209 0
0.19212 0
0.19215 0
0.19218 0
0.19221 0
0.19224 0
0.19227 0
0.19230 0
0.19233 0
0.19236 0
0.19239 0
0.19242 0
0.19245 0
0.19248 0
0.19251 0
0.19254 0
0.19257 0
0.19260 0
0.19263 0
0.19266 0
0.19269 0
0.19272 0
0.19275 0
0.19278 0
0.19281 0
0.19284 0
0.19287 0
0.19290 0
0.19293 0
0.19296 0
0.19299 0
0.19302 0
0.19305 0
0.19308 0
0.19311 0
0.19314 0
0.19317 0
0.19320 0
0.19323 0
0.19326 0
0.19329 0
0.19332 0
0.19335 0
0.19338 0
0.19341 0
0.19344 0
0.19347 0
0.19350 0
0.19353 0
0.19356 0
0.19359 0
0.19362 0
0.19365 0
0.19368 0
0.19371 0
0.19374 0
0.19377 0
0.19380 0
0.19383 0
0.19386 0
0.19389 0
0.19392 0
0.19395 0
0.19398 0
0.19401 0
0.19404 0
0.19407 0
0.19410 0
0.19413 0
0.19416 0
0.19419 0
0.19422 0
0.19425 0
0.19428 0
0.19431 0
0.19434 0
0.19437 0
0.19440 0
0.19443 0
0.19446 0
0.19449 0
0.19452 0
0.19455 0
0.19458 0
0.19461 0
0.19464 0
0.19467 0
0.19470 0
0.19473 0
0.19476 0
0.19479 0
0.19482 0
0.19485 0
0.19488 0
0.19491 0
0.19494 0
0.19497 0
0.19500 0
0.19503 0
0.19506 0
0.19509 0
0.19512 0
0.19515 0
0.19518 0
0.19521 0
0.19524 0
0.19527 0
0.19530 0
0.19533 0
0.19536 0
0.19539 0
0.19542 0
0.19545 0
0.19548 0
0.19551 0
0.19554 0
0.19557 0
0.19560 0
0.19563 0
0.19566 0
0.19569 0
0.19572 0
0.19575 0
0.19578 0
0.19581 0
0.19584 0
0.19587 0
0.19590 0
0.19593 0
0.19596 0
0.19599 0
0.19602 0
0.19605 0
0.19608 0
0.19611 0
0.19614 0
0.19617 0
0.19620 0
0.19623 0
0.19626 0
0.19629 0
0.19632 0
0.19635 0
0.19638 0
0.19641 0
0.19644 0
0.19647 0
0.19650 0
0.19653 0
0.19656 0
0.19659 0
0.19662 0
0.19665 0
0.19668 0
0.19671 0
0.19674 0
0.19677 0
0.19680 0
0.19683 0
0.19686 0
0.19689 0
0.19692 0
0.19695 0
0.19698 0
0.19701 0
0.19704 0
0.19707 0
0.19710 0
0.19713 0
0.19716 0
0.19719 0
0.19722 0
0.19725 0
0.19728 0
0.19731 0
0.19734 0
0.19737 0
0.19740 0
0.19743 0
0.19746 0
0.19749 0
0.19752 0
0.19755 0
0.19758 0
0.19761 0
0.19764 0
0.19767 0
0.19770 0
0.19773 0
0.19776 0
0.19779 0
0.19782 0
0.19785 0
0.19788 0
0.19791 0
0.19794 0
0.19797 0
0.19800 0
0.19803 0
0.19806 0
0.19809 0
0.19812 0
0.19815 0
0.19818 0
0.19821 0
0.19824 0
0.19827 0
0.19830 0
0.19833 0
0.19836 0
0.19839 0
0.19842 0
0.19845 0
0.19848 0
0.19851 0
0.19854 0
0.19857 0
0.19860 0
0.19863 0
0.19866 0
0.19869 0
0.19872 0
0.19875 0
0.19878 0
0.19881 0
0.19884 0
0.19887 0
0.19890 0
0.19893 0
0.19896 0
0.19899 0
0.19902 0
0.19905 0
0.19908 0
0.19911 0
0.19914 0
0.19917 0
0.19920 0
0.19923 0
0.19926 0
0.19929 0
0.19932 0
0.19935 0
0.19938 0
0.19941 0
0.19944 0
0.19947 0
0.19950 0
0.19953 0
0.19956 0
0.19959 0
0.19962 0
0.19965 0
0.19968 0
0.19971 0
0.19974 0
0.19977 0
0.19980 0
0.19983 0
0.19986 0
0.19989 0
0.19992 0
0.19995 0
0.19998 0
0.20001 0
0.20004 0
0.20007 0
0.20010 0
0.20013 0
0.20016 0
0.20019 0
0.20022 0
0.20025 0
0.20028 0
0.20031 0
0.20034 0
0.20037 0
0.20040 0
0.20043 0
0.20046 0
0.20049 0
0.20052 0
0.20055 0
0.20058 0
0.20061 0
0.20064 0
0.20067 0
0.20070 0
0.20073 0
0.20076 0
0.20079 0
0.20082 0
0.20085 0
0.20088 0
0.20091 0
0.20094 0
0.20097 0
0.20100 0
0.20103 0
0.20106 0
0.20109 0
0.20112 0
0.20115 0
0.20118 0
0.20121 0
0.20124 0
0.20127 0
0.20130 0
0.20133 0
0.20136 0
0.20139 0
0.20142 0
0.20145 0
0.20148 0
0.20151 0
0.20154 0
0.20157 0
0.20160 0
0.20163 0
0.20166 0
0.20169 0
0.20172 0
0.20175 0
0.20178 0
0.20181 0
0.20184 0
0.20187 0
0.20190 0
0.20193 0
0.20196 0
0.20199 0
0.20202 0
0.20205 0
0.20208 0
0.20211 0
0.20214 0
0.20217 0
0.20220 0
0.20223 0
0.20226 0
0.20229 0
0.20232 0
0.20235 0
0.20238 0
0.20241 0
0.20244 0
0.20247 0
0.20250 0
0.20253 0
0.20256 0
0.20259 0
0.20262 0
0.20265 0
0.20268 0
0.20271 0
0.20274 0
0.20277 0
0.20280 0
0.20283 0
0.20286 0
0.20289 0
0.20292 0
0.20295 0
0.20298 0
0.20301 0
0.20304 0
0.20307 0
0.20310 0
0.20313 0
0.20316 0
0.20319 0
0.20322 0
0.20325 0
0.20328 0
0.20331 0
0.20334 0
0.20337 0
0.20340 0
0.20343 0
0.20346 0
0.20349 0
0.20352 0
0.20355 0
0.20358 0
0.20361 0
0.20364 0
0.20367 0
0.20370 0
0.20373 0
0.20376 0
0.20379 0
0.20382 0
0.20385 0
0.20388 0
0.20391 0
0.20394 0
0.20397 0
0.20400 0
0.20403 0
0.20406 0
0.20409 0
0.20412 0
0.20415 0
0.20418 0
0.20421 0
0.20424 0
0.20427 0
0.20430 0
0.20433 0
0.20436 0
0.20439 0
0.20442 0
0.20445 0
0.20448 0
0.20451 0
0.20454 0
0.20457 0
0.20460 0
0.20463 0
0.20466 0
0.20469 0
0.20472 0
0.20475 0
0.20478 0
0.20481 0
0.20484 0
0.20487 0
0.20490 0
0.20493 0
0.20496 0
0.20499 0
0.20502 0
0.20505 0
0.20508 0
0.20511 0
0.20514 0
0.20517 0
0.20520 0
0.20523 0
0.20526 0
0.20529 0
0.20532 0
0.20535 0
0.20538 0
0.20541 0
0.20544 0
0.20547 0
0.20550 0
0.20553 0
0.20556 0
0.20559 0
0.20562 0
0.20565 0
0.20568 0
0.20571 0
0.20574 0
0.20577 0
0.20580 0
0.20583 0
0.20586 0
0.20589 0
0.20592 0
0.20595 0
0.20598 0
0.20601 0
0.20604 0
0.20607 0
0.20610 0
0.20613 0
0.20616 0
0.20619 0
0.20622 0
0.20625 0
0.20628 0
0.20631 0
0.20634 0
0.20637 0
0.20640 0
0.20643 0
0.20646 0
0.20649 0
0.20652 0
0.20655 0
0.20658 0
0.20661 0
0.20664 0
0.20667 0
0.20670 0
0.20673 0
0.20676 0
0.20679 0
0.20682 0
0.20685 0
0.20688 0
0.20691 0
0.20694 0
0.20697 0
0.20700 0
0.20703 0
0.20706 0
0.20709 0
0.20712 0
0.20715 0
0.20718 0
0.20721 0
0.20724 0
0.20727 0
0.20730 0
0.20733 0
0.20736 0
0.20739 0
0.20742 0
0.20745 0
0.20748 0
0.20751 0
0.20754 0
0.20757 0
0.20760 0
0.20763 0
0.20766 0
0.20769 0
0.20772 0
0.20775 0
0.20778 0
0.20781 0
0.20784 0
0.20787 0
0.20790 0
0.20793 0
0.20796 0
0.20799 0
0.20802 0
0.20805 0
0.20808 0
0.20811 0
0.20814 0
0.20817 0
0.20820 0
0.20823 0
0.20826 0
0.20829 0
0.20832 0
0.20835 0
0.20838 0
0.20841 0
0.20844 0
0.20847 0
0.20850 0
0.20853 0
0.20856 0
0.20859 0
0.20862 0
0.20865 0
0.20868 0
0.20871 0
0.20874 0
0.20877 0
0.20880 0
0.20883 0
0.20886 0
0.20889 0
0.20892 0
0.20895 0
0.20898 0
0.20901 0
0.20904 0
0.20907 0
0.20910 0
0.20913 0
0.20916 0
0.20919 0
0.20922 0
0.20925 0
0.20928 0
0.20931 0
0.20934 0
0.20937 0
0.20940 0
0.20943 0
0.20946 0
0.20949 0
0.20952 0
0.20955 0
0.20958 0
0.20961 0
0.20964 0
0.20967 0
0.20970 0
0.20973 0
0.20976 0
0.20979 0
0.20982 0
0.20985 0
0.20988 0
0.20991 0
0.20994 0
0.20997 0
0.21000 0
0.21003 0
0.21006 0
0.21009 0
0.21012 0
0.21015 0
0.21018 0
0.21021 0
0.21024 0
0.21027 0
0.21030 0
0.21033 0
0.21036 0
0.21039 0
0.21042 0
0.21045 0
0.21048 0
0.21051 0
0.21054 0
0.21057 0
0.21060 0
0.21063 0
0.21066 0
0.21069 0
0.21072 0
0.21075 0
0.21078 0
0.21081 0
0.21084 0
0.21087 0
0.21090 0
0.21093 0
0.21096 0
0.21099 0
0.21102 0
0.21105 0
0.21108 0
0.21111 0
0.21114 0
0.21117 0
0.21120 0
0.21123 0
0.21126 0
0.21129 0
0.21132 0
0.21135 0
0.21138 0
0.21141 0
0.21144 0
0.21147 0
0.21150 0
0.21153 0
0.21156 0
0.21159 0
0.21162 0
0.21165 0
0.21168 0
0.21171 0
0.21174 0
0.21177 0
0.21180 0
0.21183 0
0.21186 0
0.21189 0
0.21192 0
0.21195 0
0.21198 0
0.21201 0
0.21204 0
0.21207 0
0.21210 0
0.21213 0
0.21216 0
0.21219 0
0.21222 0
0.21225 0
0.21228 0
0.21231 0
0.21234 0
0.21237 0
0.21240 0
0.21243 0
0.21246 0
0.21249 0
0.21252 0
0.21255 0
0.21258 0
0.21261 0
0.21264 0
0.21267 0
0.21270 0
0.21273 0
0.21276 0
0.21279 0
0.21282 0
0.21285 0
0.21288 0
0.21291 0
0.21294 0
0.21297 0
0.21300 0
0.21303 0
0.21306 0
0.21309 0
0.21312 0
0.21315 0
0.21318 0
0.21321 0
0.21324 0
0.21327 0
0.21330 0
0.21333 0
0.21336 0
0.21339 0
0.21342 0
0.21345 0
0.21348 0
0.21351 0
0.21354 0
0.21357 0
0.21360 0
0.21363 0
0.21366 0
0.21369 0
0.21372 0
0.21375 0
0.21378 0
0.21381 0
0.21384 0
0.21387 0
0.21390 0
0.21393 0
0.21396 0
0.21399 0
0.21402 0
0.21405 0
0.21408 0
0.21411 0
0.21414 0
0.21417 0
0.21420 0
0.21423 0
0.21426 0
0.21429 0
0.21432 0
0.21435 0
0.21438 0
0.21441 0
0.21444 0
0.21447 0
0.21450 0
0.21453 0
0.21456 0
0.21459 0
0.21462 0
0.21465 0
0.21468 0
0.21471 0
0.21474 0
0.21477 0
0.21480 0
0.21483 0
0.21486 0
0.21489 0
0.21492 0
0.21495 0
0.21498 0
0.21501 0
0.21504 0
0.21507 0
0.21510 0
0.21513 0
0.21516 0
0.21519 0
0.21522 0
0.21525 0
0.21528 0
0.21531 0
0.21534 0
0.21537 0
0.21540 0
0.21543 0
0.21546 0
0.21549 0
0.21552 0
0.21555 0
0.21558 0
0.21561 0
0.21564 0
0.21567 0
0.21570 0
0.21573 0
0.21576 0
0.21579 0
0.21582 0
0.21585 0
0.21588 0
0.21591 0
0.21594 0
0.21597 0
0.21600 0
0.21603 0
0.21606 0
0.21609 0
0.21612 0
0.21615 0
0.21618 0
0.21621 0
0.21624 0
0.21627 0
0.21630 0
0.21633 0
0.21636 0
0.21639 0
0.21642 0
0.21645 0
0.21648 0
0.21651 0
0.21654 0
0.21657 0
0.21660 0
0.21663 0
0.21666 0
0.21669 0
0.21672 0
0.21675 0
0.21678 0
0.21681 0
0.21684 0
0.21687 0
0.21690 0
0.21693 0
0.21696 0
0.21699 0
0.21702 0
0.21705 0
0.21708 0
0.21711 0
0.21714 0
0.21717 0
0.21720 0
0.21723 0
0.21726 0
0.21729 0
0.21732 0
0.21735 0
0.21738 0
0.21741 0
0.21744 0
0.21747 0
0.21750 0
0.21753 0
0.21756 0
0.21759 0
0.21762 0
0.21765 0
0.21768 0
0.21771 0
0.21774 0
0.21777 0
0.21780 0
0.21783 0
0.21786 0
0.21789 0
0.21792 0
0.21795 0
0.21798 0
0.21801 0
0.21804 0
0.21807 0
0.21810 0
0.21813 0
0.21816 0
0.21819 0
0.21822 0
0.21825 0
0.21828 0
0.21831 0
0.21834 0
0.21837 0
0.21840 0
0.21843 0
0.21846 0
0.21849 0
0.21852 0
0.21855 0
0.21858 0
0.21861 0
0.21864 0
0.21867 0
0.21870 0
0.21873 0
0.21876 0
0.21879 0
0.21882 0
0.21885 0
0.21888 0
0.21891 0
0.21894 0
0.21897 0
0.21900 0
0.21903 0
0.21906 0
0.21909 0
0.21912 0
0.21915 0
0.21918 0
0.21921 0
0.21924 0
0.21927 0
0.21930 0
0.21933 0
0.21936 0
0.21939 0
0.21942 0
0.21945 0
0.21948 0
0.21951 0
0.21954 0
0.21957 0
0.21960 0
0.21963 0
0.21966 0
0.21969 0
0.21972 0
0.21975 0
0.21978 0
0.21981 0
0.21984 0
0.21987 0
0.21990 0
0.21993 0
0.21996 0
0.21999 0
0.22002 0
0.22005 0
0.22008 0
0.22011 0
0.22014 0
0.22017 0
0.22020 0
0.22023 0
0.22026 0
0.22029 0
0.22032 0
0.22035 0
0.22038 0
0.22041 0
0.22044 0
0.22047 0
0.22050 0
0.22053 0
0.22056 0
0.22059 0
0.22062 0
0.22065 0
0.22068 0
0.22071 0
0.22074 0
0.22077 0
0.22080 0
0.22083 0
0.22086 0
0.22089 0
0.22092 0
0.22095 0
0.22098 0
0.22101 0
0.22104 0
0.22107 0
0.22110 0
0.22113 0
0.22116 0
0.22119 0
0.22122 0
0.22125 0
0.22128 0
0.22131 0
0.22134 0
0.22137 0
0.22140 0
0.22143 0
0.22146 0
0.22149 0
0.22152 0
0.22155 0
0.22158 0
0.22161 0
0.22164 0
0.22167 0
0.22170 0
0.22173 0
0.22176 0
0.22179 0
0.22182 0
0.22185 0
0.22188 0
0.22191 0
0.22194 0
0.22197 0
0.22200 0
0.22203 0
0.22206 0
0.22209 0
0.22212 0
0.22215 0
0.22218 0
0.22221 0
0.22224 0
0.22227 0
0.22230 0
0.22233 0
0.22236 0
0.22239 0
0.22242 0
0.22245 0
0.22248 0
0.22251 0
0.22254 0
0.22257 0
0.22260 0
0.22263 0
0.22266 0
0.22269 0
0.22272 0
0.22275 0
0.22278 0
0.22281 0
0.22284 0
0.22287 0
0.22290 0
0.22293 0
0.22296 0
0.22299 0
0.22302 0
0.22305 0
0.22308 0
0.22311 0
0.22314 0
0.22317 0
0.22320 0
0.22323 0
0.22326 0
0.22329 0
0.22332 0
0.22335 0
0.22338 0
0.22341 0
0.22344 0
0.22347 0
0.22350 0
0.22353 0
0.22356 0
0.22359 0
0.22362 0
0.22365 0
0.22368 0
0.22371 0
0.22374 0
0.22377 0
0.22380 0
0.22383 0
0.22386 0
0.22389 0
0.22392 0
0.22395 0
0.22398 0
0.22401 0
0.22404 0
0.22407 0
0.22410 0
0.22413 0
0.22416 0
0.22419 0
0.22422 0
0.22425 0
0.22428 0
0.22431 0
0.22434 0
0.22437 0
0.22440 0
0.22443 0
0.22446 0
0.22449 0
0.22452 0
0.22455 0
0.22458 0
0.22461 0
0.22464 0
0.22467 0
0.22470 0
0.22473 0
0.22476 0
0.22479 0
0.22482 0
0.22485 0
0.22488 0
0.22491 0
0.22494 0
0.22497 0
0.22500 0
0.22503 0
0.22506 0
0.22509 0
0.22512 0
0.22515 0
0.22518 0
0.22521 0
0.22524 0
0.22527 0
0.22530 0
0.22533 0
0.22536 0
0.22539 0
0.22542 0
0.22545 0
0.22548 0
0.22551 0
0.22554 0
0.22557 0
0.22560 0
0.22563 0
0.22566 0
0.22569 0
0.22572 0
0.22575 0
0.22578 0
0.22581 0
0.22584 0
0.22587 0
0.22590 0
0.22593 0
0.22596 0
0.22599 0
0.22602 0
0.22605 0
0.22608 0
0.22611 0
0.22614 0
0.22617 0
0.22620 0
0.22623 0
0.22626 0
0.22629 0
0.22632 0
0.22635 0
0.22638 0
0.22641 0
0.22644 0
0.22647 0
0.22650 0
0.22653 0
0.22656 0
0.22659 0
0.22662 0
0.22665 0
0.22668 0
0.22671 0
0.22674 0
0.22677 0
0.22680 0
0.22683 0
0.22686 0
0.22689 0
0.22692 0
0.22695 0
0.22698 0
0.22701 0
0.22704 0
0.22707 0
0.22710 0
0.22713 0
0.22716 0
0.22719 0
0.22722 0
0.22725 0
0.22728 0
0.22731 0
0.22734 0
0.22737 0
0.22740 0
0.22743 0
0.22746 0
0.22749 0
0.22752 0
0.22755 0
0.22758 0
0.22761 0
0.22764 0
0.22767 0
0.22770 0
0.22773 0
0.22776 0
0.22779 0
0.22782 0
0.22785 0
0.22788 0
0.22791 0
0.22794 0
0.22797 0
0.22800 0
0.22803 0
0.22806 0
0.22809 0
0.22812 0
0.22815 0
0.22818 0
0.22821 0
0.22824 0
0.22827 0
0.22830 0
0.22833 0
0.22836 0
0.22839 0
0.22842 0
0.22845 0
0.22848 0
0.22851 0
0.22854 0
0.22857 0
0.22860 0
0.22863 0
0.22866 0
0.22869 0
0.22872 0
0.22875 0
0.22878 0
0.22881 0
0.22884 0
0.22887 0
0.22890 0
0.22893 0
0.22896 0
0.22899 0
0.22902 0
0.22905 0
0.22908 0
0.22911 0
0.22914 0
0.22917 0
0.22920 0
0.22923 0
0.22926 0
0.22929 0
0.22932 0
0.22935 0
0.22938 0
0.22941 0
0.22944 0
0.22947 0
0.22950 0
0.22953 0
0.22956 0
0.22959 0
0.22962 0
0.22965 0
0.22968 0
0.22971 0
0.22974 0
0.22977 0
0.22980 0
0.22983 0
0.22986 0
0.22989 0
0.22992 0
0.22995 0
0.22998 0
0.23001 0
0.23004 0
0.23007 0
0.23010 0
0.23013 0
0.23016 0
0.23019 0
0.23022 0
0.23025 0
0.23028 0
0.23031 0
0.23034 0
0.23037 0
0.23040 0
0.23043 0
0.23046 0
0.23049 0
0.23052 0
0.23055 0
0.23058 0
0.23061 0
0.23064 0
0.23067 0
0.23070 0
0.23073 0
0.23076 0
0.23079 0
0.23082 0
0.23085 0
0.23088 0
0.23091 0
0.23094 0
0.23097 0
0.23100 0
0.23103 0
0.23106 0
0.23109 0
0.23112 0
0.23115 0
0.23118 0
0.23121 0
0.23124 0
0.23127 0
0.23130 0
0.23133 0
0.23136 0
0.23139 0
0.23142 0
0.23145 0
0.23148 0
0.23151 0
0.23154 0
0.23157 0
0.23160 0
0.23163 0
0.23166 0
0.23169 0
0.23172 0
0.23175 0
0.23178 0
0.23181 0
0.23184 0
0.23187 0
0.23190 0
0.23193 0
0.23196 0
0.23199 0
0.23202 0
0.23205 0
0.23208 0
0.23211 0
0.23214 0
0.23217 0
0.23220 0
0.23223 0
0.23226 0
0.23229 0
0.23232 0
0.23235 0
0.23238 0
0.23241 0
0.23244 0
0.23247 0
0.23250 0
0.23253 0
0.23256 0
0.23259 0
0.23262 0
0.23265 0
0.23268 0
0.23271 0
0.23274 0
0.23277 0
0.23280 0
0.23283 0
0.23286 0
0.23289 0
0.23292 0
0.23295 0
0.23298 0
0.23301 0
0.23304 0
0.23307 0
0.23310 0
0.23313 0
0.23316 0
0.23319 0
0.23322 0
0.23325 0
0.23328 0
0.23331 0
0.23334 0
0.23337 0
0.23340 0
0.23343 0
0.23346 0
0.23349 0
0.23352 0
0.23355 0
0.23358 0
0.23361 0
0.23364 0
0.23367 0
0.23370 0
0.23373 0
0.23376 0
0.23379 0
0.23382 0
0.23385 0
0.23388 0
0.23391 0
0.23394 0
0.23397 0
0.23400 0
0.23403 0
0.23406 0
0.23409 0
0.23412 0
0.23415 0
0.23418 0
0.23421 0
0.23424 0
0.23427 0
0.23430 0
0.23433 0
0.23436 0
0.23439 0
0.23442 0
0.23445 0
0.23448 0
0.23451 0
0.23454 0
0.23457 0
0.23460 0
0.23463 0
0.23466 0
0.23469 0
0.23472 0
0.23475 0
0.23478 0
0.23481 0
0.23484 0
0.23487 0
0.23490 0
0.23493 0
0.23496 0
0.23499 0
0.23502 0
0.23505 0
0.23508 0
0.23511 0
0.23514 0
0.23517 0
0.23520 0
0.23523 0
0.23526 0
0.23529 0
0.23532 0
0.23535 0
0.23538 0
0.23541 0
0.23544 0
0.23547 0
0.23550 0
0.23553 0
0.23556 0
0.23559 0
0.23562 0
0.23565 0
0.23568 0
0.23571 0
0.23574 0
0.23577 0
0.23580 0
0.23583 0
0.23586 0
0.23589 0
0.23592 0
0.23595 0
0.23598 0
0.23601 0
0.23604 0
0.23607 0
0.23610 0
0.23613 0
0.23616 0
0.23619 0
0.23622 0
0.23625 0
0.23628 0
0.23631 0
0.23634 0
0.23637 0
0.23640 0
0.23643 0
0.23646 0
0.23649 0
0.23652 0
0.23655 0
0.23658 0
0.23661 0
0.23664 0
0.23667 0
0.23670 0
0.23673 0
0.23676 0
0.23679 0
0.23682 0
0.23685 0
0.23688 0
0.23691 0
0.23694 0
0.23697 0
0.23700 0
0.23703 0
0.23706 0
0.23709 0
0.23712 0
0.23715 0
0.23718 0
0.23721 0
0.23724 0
0.23727 0
0.23730 0
0.23733 0
0.23736 0
0.23739 0
0.23742 0
0.23745 0
0.23748 0
0.23751 0
0.23754 0
0.23757 0
0.23760 0
0.23763 0
0.23766 0
0.23769 0
0.23772 0
0.23775 0
0.23778 0
0.23781 0
0.23784 0
0.23787 0
0.23790 0
0.23793 0
0.23796 0
0.23799 0
0.23802 0
0.23805 0
0.23808 0
0.23811 0
0.23814 0
0.23817 0
0.23820 0
0.23823 0
0.23826 0
0.23829 0
0.23832 0
0.23835 0
0.23838 0
0.23841 0
0.23844 0
0.23847 0
0.23850 0
0.23853 0
0.23856 0
0.23859 0
0.23862 0
0.23865 0
0.23868 0
0.23871 0
0.23874 0
0.23877 0
0.23880 0
0.23883 0
0.23886 0
0.23889 0
0.23892 0
0.23895 0
0.23898 0
0.23901 0
0.23904 0
0.23907 0
0.23910 0
0.23913 0
0.23916 0
0.23919 0
0.23922 0
0.23925 0
0.23928 0
0.23931 0
0.23934 0
0.23937 0
0.23940 0
0.23943 0
0.23946 0
0.23949 0
0.23952 0
0.23955 0
0.23958 0
0.23961 0
0.23964 0
0.23967 0
0.23970 0
0.23973 0
0.23976 0
0.23979 0
0.23982 0
0.23985 0
0.23988 0
0.23991 0
0.23994 0
0.23997 0
0.24000 0
0.24003 0
0.24006 0
0.24009 0
0.24012 0
0.24015 0
0.24018 0
0.24021 0
0.24024 0
0.24027 0
0.24030 0
0.24033 0
0.24036 0
0.24039 0
0.24042 0
0.24045 0
0.24048 0
0.24051 0
0.24054 0
0.24057 0
0.24060 0
0.24063 0
0.24066 0
0.24069 0
0.24072 0
0.24075 0
0.24078 0
0.24081 0
0.24084 0
0.24087 0
0.24090 0
0.24093 0
0.24096 0
0.24099 0
0.24102 0
0.24105 0
0.24108 0
0.24111 0
0.24114 0
0.24117 0
0.24120 0
0.24123 0
0.24126 0
0.24129 0
0.24132 0
0.24135 0
0.24138 0
0.24141 0
0.24144 0
0.24147 0
0.24150 0
0.24153 0
0.24156 0
0.24159 0
0.24162 0
0.24165 0
0.24168 0
0.24171 0
0.24174 0
0.24177 0
0.24180 0
0.24183 0
0.24186 0
0.24189 0
0.24192 0
0.24195 0
0.24198 0
0.24201 0
0.24204 0
0.24207 0
0.24210 0
0.24213 0
0.24216 0
0.24219 0
0.24222 0
0.24225 0
0.24228 0
0.24231 0
0.24234 0
0.24237 0
0.24240 0
0.24243 0
0.24246 0
0.24249 0
0.24252 0
0.24255 0
0.24258 0
0.24261 0
0.24264 0
0.24267 0
0.24270 0
0.24273 0
0.24276 0
0.24279 0
0.24282 0
0.24285 0
0.24288 0
0.24291 0
0.24294 0
0.24297 0
0.24300 0
0.24303 0
0.24306 0
0.24309 0
0.24312 0
0.24315 0
0.24318 0
0.24321 0
0.24324 0
0.24327 0
0.24330 0
0.24333 0
0.24336 0
0.24339 0
0.24342 0
0.24345 0
0.24348 0
0.24351 0
0.24354 0
0.24357 0
0.24360 0
0.24363 0
0.24366 0
0.24369 0
0.24372 0
0.24375 0
0.24378 0
0.24381 0
0.24384 0
0.24387 0
0.24390 0
0.24393 0
0.24396 0
0.24399 0
0.24402 0
0.24405 0
0.24408 0
0.24411 0
0.24414 0
0.24417 0
0.24420 0
0.24423 0
0.24426 0
0.24429 0
0.24432 0
0.24435 0
0.24438 0
0.24441 0
0.24444 0
0.24447 0
0.24450 0
0.24453 0
0.24456 0
0.24459 0
0.24462 0
0.24465 0
0.24468 0
0.24471 0
0.24474 0
0.24477 0
0.24480 0
0.24483 0
0.24486 0
0.24489 0
0.24492 0
0.24495 0
0.24498 0
0.24501 0
0.24504 0
0.24507 0
0.24510 0
0.24513 0
0.24516 0
0.24519 0
0.24522 0
0.24525 0
0.24528 0
0.24531 0
0.24534 0
0.24537 0
0.24540 0
0.24543 0
0.24546 0
0.24549 0
0.24552 0
0.24555 0
0.24558 0
0.24561 0
0.24564 0
0.24567 0
0.24570 0
0.24573 0
0.24576 0
0.24579 0
0.24582 0
0.24585 0
0.24588 0
0.24591 0
0.24594 0
0.24597 0
0.24600 0
0.24603 0
0.24606 0
0.24609 0
0.24612 0
0.24615 0
0.24618 0
0.24621 0
0.24624 0
0.24627 0
0.24630 0
0.24633 0
0.24636 0
0.24639 0
0.24642 0
0.24645 0
0.24648 0
0.24651 0
0.24654 0
0.24657 0
0.24660 0
0.24663 0
0.24666 0
0.24669 0
0.24672 0
0.24675 0
0.24678 0
0.24681 0
0.24684 0
0.24687 0
0.24690 0
0.24693 0
0.24696 0
0.24699 0
0.24702 0
0.24705 0
0.24708 0
0.24711 0
0.24714 0
0.24717 0
0.24720 0
0.24723 0
0.24726 0
0.24729 0
0.24732 0
0.24735 0
0.24738 0
0.24741 0
0.24744 0
0.24747 0
0.24750 0
0.24753 0
0.24756 0
0.24759 0
0.24762 0
0.24765 0
0.24768 0
0.24771 0
0.24774 0
0.24777 0
0.24780 0
0.24783 0
0.24786 0
0.24789 0
0.24792 0
0.24795 0
0.24798 0
0.24801 0
0.24804 0
0.24807 0
0.24810 0
0.24813 0
0.24816 0
0.24819 0
0.24822 0
0.24825 0
0.24828 0
0.24831 0
0.24834 0
0.24837 0
0.24840 0
0.24843 0
0.24846 0
0.24849 0
0.24852 0
0.24855 0
0.24858 0
0.24861 0
0.24864 0
0.24867 0
0.24870 0
0.24873 0
0.24876 0
0.24879 0
0.24882 0
0.24885 0
0.24888 0
0.24891 0
0.24894 0
0.24897 0
0.24900 0
0.24903 0
0.24906 0
0.24909 0
0.24912 0
0.24915 0
0.24918 0
0.24921 0
0.24924 0
0.24927 0
0.24930 0
0.24933 0
0.24936 0
0.24939 0
0.24942 0
0.24945 0
0.24948 0
0.24951 0
0.24954 0
0.24957 0
0.24960 0
0.24963 0
0.24966 0
0.24969 0
0.24972 0
0.24975 0
0.24978 0
0.24981 0
0.24984 0
0.24987 0
0.24990 0
0.24993 0
0.24996 0
0.24999 0
0.25002 0
0.25005 0
0.25008 0
0.25011 0
0.25014 0
0.25017 0
0.25020 0
0.25023 0
0.25026 0
0.25029 0
0.25032 0
0.25035 0
0.25038 0
0.25041 0
0.25044 0
0.25047 0
0.25050 0
0.25053 0
0.25056 0
0.25059 0
0.25062 0
0.25065 0
0.25068 0
0.25071 0
0.25074 0
0.25077 0
0.25080 0
0.25083 0
0.25086 0
0.25089 0
0.25092 0
0.25095 0
0.25098 0
0.25101 0
0.25104 0
0.25107 0
0.25110 0
0.25113 0
0.25116 0
0.25119 0
0.25122 0
0.25125 0
0.25128 0
0.25131 0
0.25134 0
0.25137 0
0.25140 0
0.25143 0
0.25146 0
0.25149 0
0.25152 0
0.25155 0
0.25158 0
0.25161 0
0.25164 0
0.25167 0
0.25170 0
0.25173 0
0.25176 0
0.25179 0
0.25182 0
0.25185 0
0.25188 0
0.25191 0
0.25194 0
0.25197 0
0.25200 0
0.25203 0
0.25206 0
0.25209 0
0.25212 0
0.25215 0
0.25218 0
0.25221 0
0.25224 0
0.25227 0
0.25230 0
0.25233 0
0.25236 0
0.25239 0
0.25242 0
0.25245 0
0.25248 0
0.25251 0
0.25254 0
0.25257 0
0.25260 0
0.25263 0
0.25266 0
0.25269 0
0.25272 0
0.25275 0
0.25278 0
0.25281 0
0.25284 0
0.25287 0
0.25290 0
0.25293 0
0.25296 0
0.25299 0
0.25302 0
0.25305 0
0.25308 0
0.25311 0
0.25314 0
0.25317 0
0.25320 0
0.25323 0
0.25326 0
0.25329 0
0.25332 0
0.25335 0
0.25338 0
0.25341 0
0.25344 0
0.25347 0
0.25350 0
0.25353 0
0.25356 0
0.25359 0
0.25362 0
0.25365 0
0.25368 0
0.25371 0
0.25374 0
0.25377 0
0.25380 0
0.25383 0
0.25386 0
0.25389 0
0.25392 0
0.25395 0
0.25398 0
0.25401 0
0.25404 0
0.25407 0
0.25410 0
0.25413 0
0.25416 0
0.25419 0
0.25422 0
0.25425 0
0.25428 0
0.25431 0
0.25434 0
0.25437 0
0.25440 0
0.25443 0
0.25446 0
0.25449 0
0.25452 0
0.25455 0
0.25458 0
0.25461 0
0.25464 0
0.25467 0
0.25470 0
0.25473 0
0.25476 0
0.25479 0
0.25482 0
0.25485 0
0.25488 0
0.25491 0
0.25494 0
0.25497 0
0.25500 0
0.25503 0
0.25506 0
0.25509 0
0.25512 0
0.25515 0
0.25518 0
0.25521 0
0.25524 0
0.25527 0
0.25530 0
0.25533 0
0.25536 0
0.25539 0
0.25542 0
0.25545 0
0.25548 0
0.25551 0
0.25554 0
0.25557 0
0.25560 0
0.25563 0
0.25566 0
0.25569 0
0.25572 0
0.25575 0
0.25578 0
0.25581 0
0.25584 0
0.25587 0
0.25590 0
0.25593 0
0.25596 0
0.25599 0
0.25602 0
0.25605 0
0.25608 0
0.25611 0
0.25614 0
0.25617 0
0.25620 0
0.25623 0
0.25626 0
0.25629 0
0.25632 0
0.25635 0
0.25638 0
0.25641 0
0.25644 0
0.25647 0
0.25650 0
0.25653 0
0.25656 0
0.25659 0
0.25662 0
0.25665 0
0.25668 0
0.25671 0
0.25674 0
0.25677 0
0.25680 0
0.25683 0
0.25686 0
0.25689 0
0.25692 0
0.25695 0
0.25698 0
0.25701 0
0.25704 0
0.25707 0
0.25710 0
0.25713 0
0.25716 0
0.25719 0
0.25722 0
0.25725 0
0.25728 0
0.25731 0
0.25734 0
0.25737 0
0.25740 0
0.25743 0
0.25746 0
0.25749 0
0.25752 0
0.25755 0
0.25758 0
0.25761 0
0.25764 0
0.25767 0
0.25770 0
0.25773 0
0.25776 0
0.25779 0
0.25782 0
0.25785 0
0.25788 0
0.25791 0
0.25794 0
0.25797 0
0.25800 0
0.25803 0
0.25806 0
0.25809 0
0.25812 0
0.25815 0
0.25818 0
0.25821 0
0.25824 0
0.25827 0
0.25830 0
0.25833 0
0.25836 0
0.25839 0
0.25842 0
0.25845 0
0.25848 0
0.25851 0
0.25854 0
0.25857 0
0.25860 0
0.25863 0
0.25866 0
0.25869 0
0.25872 0
0.25875 0
0.25878 0
0.25881 0
0.25884 0
0.25887 0
0.25890 0
0.25893 0
0.25896 0
0.25899 0
0.25902 0
0.25905 0
0.25908 0
0.25911 0
0.25914 0
0.25917 0
0.25920 0
0.25923 0
0.25926 0
0.25929 0
0.25932 0
0.25935 0
0.25938 0
0.25941 0
0.25944 0
0.25947 0
0.25950 0
0.25953 0
0.25956 0
0.25959 0
0.25962 0
0.25965 0
0.25968 0
0.25971 0
0.25974 0
0.25977 0
0.25980 0
0.25983 0
0.25986 0
0.25989 0
0.25992 0
0.25995 0
0.25998 0
0.26001 0
0.26004 0
0.26007 0
0.26010 0
0.26013 0
0.26016 0
0.26019 0
0.26022 0
0.26025 0
0.26028 0
0.26031 0
0.26034 0
0.26037 0
0.26040 0
0.26043 0
0.26046 0
0.26049 0
0.26052 0
0.26055 0
0.26058 0
0.26061 0
0.26064 0
0.26067 0
0.26070 0
0.26073 0
0.26076 0
0.26079 0
0.26082 0
0.26085 0
0.26088 0
0.26091 0
0.26094 0
0.26097 0
0.26100 0
0.26103 0
0.26106 0
0.26109 0
0.26112 0
0.26115 0
0.26118 0
0.26121 0
0.26124 0
0.26127 0
0.26130 0
0.26133 0
0.26136 0
0.26139 0
0.26142 0
0.26145 0
0.26148 0
0.26151 0
0.26154 0
0.26157 0
0.26160 0
0.26163 0
0.26166 0
0.26169 0
0.26172 0
0.26175 0
0.26178 0
0.26181 0
0.26184 0
0.26187 0
0.26190 0
0.26193 0
0.26196 0
0.26199 0
0.26202 0
0.26205 0
0.26208 0
0.26211 0
0.26214 0
0.26217 0
0.26220 0
0.26223 0
0.26226 0
0.26229 0
0.26232 0
0.26235 0
0.26238 0
0.26241 0
0.26244 0
0.26247 0
0.26250 0
0.26253 0
0.26256 0
0.26259 0
0.26262 0
0.26265 0
0.26268 0
0.26271 0
0.26274 0
0.26277 0
0.26280 0
0.26283 0
0.26286 0
0.26289 0
0.26292 0
0.26295 0
0.26298 0
0.26301 0
0.26304 0
0.26307 0
0.26310 0
0.26313 0
0.26316 0
0.26319 0
0.26322 0
0.26325 0
0.26328 0
0.26331 0
0.26334 0
0.26337 0
0.26340 0
0.26343 0
0.26346 0
0.26349 0
0.26352 0
0.26355 0
0.26358 0
0.26361 0
0.26364 0
0.26367 0
0.26370 0
0.26373 0
0.26376 0
0.26379 0
0.26382 0
0.26385 0
0.26388 0
0.26391 0
0.26394 0
0.26397 0
0.26400 0
0.26403 0
0.26406 0
0.26409 0
0.26412 0
0.26415 0
0.26418 0
0.26421 0
0.26424 0
0.26427 0
0.26430 0
0.26433 0
0.26436 0
0.26439 0
0.26442 0
0.26445 0
0.26448 0
0.26451 0
0.26454 0
0.26457 0
0.26460 0
0.26463 0
0.26466 0
0.26469 0
0.26472 0
0.26475 0
0.26478 0
0.26481 0
0.26484 0
0.26487 0
0.26490 0
0.26493 0
0.26496 0
0.26499 0
0.26502 0
0.26505 0
0.26508 0
0.26511 0
0.26514 0
0.26517 0
0.26520 0
0.26523 0
0.26526 0
0.26529 0
0.26532 0
0.26535 0
0.26538 0
0.26541 0
0.26544 0
0.26547 0
0.26550 0
0.26553 0
0.26556 0
0.26559 0
0.26562 0
0.26565 0
0.26568 0
0.26571 0
0.26574 0
0.26577 0
0.26580 0
0.26583 0
0.26586 0
0.26589 0
0.26592 0
0.26595 0
0.26598 0
0.26601 0
0.26604 0
0.26607 0
0.26610 0
0.26613 0
0.26616 0
0.26619 0
0.26622 0
0.26625 0
0.26628 0
0.26631 0
0.26634 0
0.26637 0
0.26640 0
0.26643 0
0.26646 0
0.26649 0
0.26652 0
0.26655 0
0.26658 0
0.26661 0
0.26664 0
0.26667 0
0.26670 0
0.26673 0
0.26676 0
0.26679 0
0.26682 0
0.26685 0
0.26688 0
0.26691 0
0.26694 0
0.26697 0
0.26700 0
0.26703 0
0.26706 0
0.26709 0
0.26712 0
0.26715 0
0.26718 0
0.26721 0
0.26724 0
0.26727 0
0.26730 0
0.26733 0
0.26736 0
0.26739 0
0.26742 0
0.26745 0
0.26748 0
0.26751 0
0.26754 0
0.26757 0
0.26760 0
0.26763 0
0.26766 0
0.26769 0
0.26772 0
0.26775 0
0.26778 0
0.26781 0
0.26784 0
0.26787 0
0.26790 0
0.26793 0
0.26796 0
0.26799 0
0.26802 0
0.26805 0
0.26808 0
0.26811 0
0.26814 0
0.26817 0
0.26820 0
0.26823 0
0.26826 0
0.26829 0
0.26832 0
0.26835 0
0.26838 0
0.26841 0
0.26844 0
0.26847 0
0.26850 0
0.26853 0
0.26856 0
0.26859 0
0.26862 0
0.26865 0
0.26868 0
0.26871 0
0.26874 0
0.26877 0
0.26880 0
0.26883 0
0.26886 0
0.26889 0
0.26892 0
0.26895 0
0.26898 0
0.26901 0
0.26904 0
0.26907 0
0.26910 0
0.26913 0
0.26916 0
0.26919 0
0.26922 0
0.26925 0
0.26928 0
0.26931 0
0.26934 0
0.26937 0
0.26940 0
0.26943 0
0.26946 0
0.26949 0
0.26952 0
0.26955 0
0.26958 0
0.26961 0
0.26964 0
0.26967 0
0.26970 0
0.26973 0
0.26976 0
0.26979 0
0.26982 0
0.26985 0
0.26988 0
0.26991 0
0.26994 0
0.26997 0
0.27000 0
0.27003 0
0.27006 0
0.27009 0
0.27012 0
0.27015 0
0.27018 0
0.27021 0
0.27024 0
0.27027 0
0.27030 0
0.27033 0
0.27036 0
0.27039 0
0.27042 0
0.27045 0
0.27048 0
0.27051 0
0.27054 0
0.27057 0
0.27060 0
0.27063 0
0.27066 0
0.27069 0
0.27072 0
0.27075 0
0.27078 0
0.27081 0
0.27084 0
0.27087 0
0.27090 0
0.27093 0
0.27096 0
0.27099 0
0.27102 0
0.27105 0
0.27108 0
0.27111 0
0.27114 0
0.27117 0
0.27120 0
0.27123 0
0.27126 0
0.27129 0
0.27132 0
0.27135 0
0.27138 0
0.27141 0
0.27144 0
0.27147 0
0.27150 0
0.27153 0
0.27156 0
0.27159 0
0.27162 0
0.27165 0
0.27168 0
0.27171 0
0.27174 0
0.27177 0
0.27180 0
0.27183 0
0.27186 0
0.27189 0
0.27192 0
0.27195 0
0.27198 0
0.27201 0
0.27204 0
0.27207 0
0.27210 0
0.27213 0
0.27216 0
0.27219 0
0.27222 0
0.27225 0
0.27228 0
0.27231 0
0.27234 0
0.27237 0
0.27240 0
0.27243 0
0.27246 0
0.27249 0
0.27252 0
0.27255 0
0.27258 0
0.27261 0
0.27264 0
0.27267 0
0.27270 0
0.27273 0
0.27276 0
0.27279 0
0.27282 0
0.27285 0
0.27288 0
0.27291 0
0.27294 0
0.27297 0
0.27300 0
0.27303 0
0.27306 0
0.27309 0
0.27312 0
0.27315 0
0.27318 0
0.27321 0
0.27324 0
0.27327 0
0.27330 0
0.27333 0
0.27336 0
0.27339 0
0.27342 0
0.27345 0
0.27348 0
0.27351 0
0.27354 0
0.27357 0
0.27360 0
0.27363 0
0.27366 0
0.27369 0
0.27372 0
0.27375 0
0.27378 0
0.27381 0
0.27384 0
0.27387 0
0.27390 0
0.27393 0
0.27396 0
0.27399 0
0.27402 0
0.27405 0
0.27408 0
0.27411 0
0.27414 0
0.27417 0
0.27420 0
0.27423 0
0.27426 0
0.27429 0
0.27432 0
0.27435 0
0.27438 0
0.27441 0
0.27444 0
0.27447 0
0.27450 0
0.27453 0
0.27456 0
0.27459 0
0.27462 0
0.27465 0
0.27468 0
0.27471 0
0.27474 0
0.27477 0
0.27480 0
0.27483 0
0.27486 0
0.27489 0
0.27492 0
0.27495 0
0.27498 0
0.27501 0
0.27504 0
0.27507 0
0.27510 0
0.27513 0
0.27516 0
0.27519 0
0.27522 0
0.27525 0
0.27528 0
0.27531 0
0.27534 0
0.27537 0
0.27540 0
0.27543 0
0.27546 0
0.27549 0
0.27552 0
0.27555 0
0.27558 0
0.27561 0
0.27564 0
0.27567 0
0.27570 0
0.27573 0
0.27576 0
0.27579 0
0.27582 0
0.27585 0
0.27588 0
0.27591 0
0.27594 0
0.27597 0
0.27600 0
0.27603 0
0.27606 0
0.27609 0
0.27612 0
0.27615 0
0.27618 0
0.27621 0
0.27624 0
0.27627 0
0.27630 0
0.27633 0
0.27636 0
0.27639 0
0.27642 0
0.27645 0
0.27648 0
0.27651 0
0.27654 0
0.27657 0
0.27660 0
0.27663 0
0.27666 0
0.27669 0
0.27672 0
0.27675 0
0.27678 0
0.27681 0
0.27684 0
0.27687 0
0.27690 0
0.27693 0
0.27696 0
0.27699 0
0.27702 0
0.27705 0
0.27708 0
0.27711 0
0.27714 0
0.27717 0
0.27720 0
0.27723 0
0.27726 0
0.27729 0
0.27732 0
0.27735 0
0.27738 0
0.27741 0
0.27744 0
0.27747 0
0.27750 0
0.27753 0
0.27756 0
0.27759 0
0.27762 0
0.27765 0
0.27768 0
0.27771 0
0.27774 0
0.27777 0
0.27780 0
0.27783 0
0.27786 0
0.27789 0
0.27792 0
0.27795 0
0.27798 0
0.27801 0
0.27804 0
0.27807 0
0.27810 0
0.27813 0
0.27816 0
0.27819 0
0.27822 0
0.27825 0
0.27828 0
0.27831 0
0.27834 0
0.27837 0
0.27840 0
0.27843 0
0.27846 0
0.27849 0
0.27852 0
0.27855 0
0.27858 0
0.27861 0
0.27864 0
0.27867 0
0.27870 0
0.27873 0
0.27876 0
0.27879 0
0.27882 0
0.27885 0
0.27888 0
0.27891 0
0.27894 0
0.27897 0
0.27900 0
0.27903 0
0.27906 0
0.27909 0
0.27912 0
0.27915 0
0.27918 0
0.27921 0
0.27924 0
0.27927 0
0.27930 0
0.27933 0
0.27936 0
0.27939 0
0.27942 0
0.27945 0
0.27948 0
0.27951 0
0.27954 0
0.27957 0
0.27960 0
0.27963 0
0.27966 0
0.27969 0
0.27972 0
0.27975 0
0.27978 0
0.27981 0
0.27984 0
0.27987 0
0.27990 0
0.27993 0
0.27996 0
0.27999 0
0.28002 0
0.28005 0
0.28008 0
0.28011 0
0.28014 0
0.28017 0
0.28020 0
0.28023 0
0.28026 0
0.28029 0
0.28032 0
0.28035 0
0.28038 0
0.28041 0
0.28044 0
0.28047 0
0.28050 0
0.28053 0
0.28056 0
0.28059 0
0.28062 0
0.28065 0
0.28068 0
0.28071 0
0.28074 0
0.28077 0
0.28080 0
0.28083 0
0.28086 0
0.28089 0
0.28092 0
0.28095 0
0.28098 0
0.28101 0
0.28104 0
0.28107 0
0.28110 0
0.28113 0
0.28116 0
0.28119 0
0.28122 0
0.28125 0
0.28128 0
0.28131 0
0.28134 0
0.28137 0
0.28140 0
0.28143 0
0.28146 0
0.28149 0
0.28152 0
0.28155 0
0.28158 0
0.28161 0
0.28164 0
0.28167 0
0.28170 0
0.28173 0
0.28176 0
0.28179 0
0.28182 0
0.28185 0
0.28188 0
0.28191 0
0.28194 0
0.28197 0
0.28200 0
0.28203 0
0.28206 0
0.28209 0
0.28212 0
0.28215 0
0.28218 0
0.28221 0
0.28224 0
0.28227 0
0.28230 0
0.28233 0
0.28236 0
0.28239 0
0.28242 0
0.28245 0
0.28248 0
0.28251 0
0.28254 0
0.28257 0
0.28260 0
0.28263 0
0.28266 0
0.28269 0
0.28272 0
0.28275 0
0.28278 0
0.28281 0
0.28284 0
0.28287 0
0.28290 0
0.28293 0
0.28296 0
0.28299 0
0.28302 0
0.28305 0
0.28308 0
0.28311 0
0.28314 0
0.28317 0
0.28320 0
0.28323 0
0.28326 0
0.28329 0
0.28332 0
0.28335 0
0.28338 0
0.28341 0
0.28344 0
0.28347 0
0.28350 0
0.28353 0
0.28356 0
0.28359 0
0.28362 0
0.28365 0
0.28368 0
0.28371 0
0.28374 0
0.28377 0
0.28380 0
0.28383 0
0.28386 0
0.28389 0
0.28392 0
0.28395 0
0.28398 0
0.28401 0
0.28404 0
0.28407 0
0.28410 0
0.28413 0
0.28416 0
0.28419 0
0.28422 0
0.28425 0
0.28428 0
0.28431 0
0.28434 0
0.28437 0
0.28440 0
0.28443 0
0.28446 0
0.28449 0
0.28452 0
0.28455 0
0.28458 0
0.28461 0
0.28464 0
0.28467 0
0.28470 0
0.28473 0
0.28476 0
0.28479 0
0.28482 0
0.28485 0
0.28488 0
0.28491 0
0.28494 0
0.28497 0
0.28500 0
0.28503 0
0.28506 0
0.28509 0
0.28512 0
0.28515 0
0.28518 0
0.28521 0
0.28524 0
0.28527 0
0.28530 0
0.28533 0
0.28536 0
0.28539 0
0.28542 0
0.28545 0
0.28548 0
0.28551 0
0.28554 0
0.28557 0
0.28560 0
0.28563 0
0.28566 0
0.28569 0
0.28572 0
0.28575 0
0.28578 0
0.28581 0
0.28584 0
0.28587 0
0.28590 0
0.28593 0
0.28596 0
0.28599 0
0.28602 0
0.28605 0
0.28608 0
0.28611 0
0.28614 0
0.28617 0
0.28620 0
0.28623 0
0.28626 0
0.28629 0
0.28632 0
0.28635 0
0.28638 0
0.28641 0
0.28644 0
0.28647 0
0.28650 0
0.28653 0
0.28656 0
0.28659 0
0.28662 0
0.28665 0
0.28668 0
0.28671 0
0.28674 0
0.28677 0
0.28680 0
0.28683 0
0.28686 0
0.28689 0
0.28692 0
0.28695 0
0.28698 0
0.28701 0
0.28704 0
0.28707 0
0.28710 0
0.28713 0
0.28716 0
0.28719 0
0.28722 0
0.28725 0
0.28728 0
0.28731 0
0.28734 0
0.28737 0
0.28740 0
0.28743 0
0.28746 0
0.28749 0
0.28752 0
0.28755 0
0.28758 0
0.28761 0
0.28764 0
0.28767 0
0.28770 0
0.28773 0
0.28776 0
0.28779 0
0.28782 0
0.28785 0
0.28788 0
0.28791 0
0.28794 0
0.28797 0
0.28800 0
0.28803 0
0.28806 0
0.28809 0
0.28812 0
0.28815 0
0.28818 0
0.28821 0
0.28824 0
0.28827 0
0.28830 0
0.28833 0
0.28836 0
0.28839 0
0.28842 0
0.28845 0
0.28848 0
0.28851 0
0.28854 0
0.28857 0
0.28860 0
0.28863 0
0.28866 0
0.28869 0
0.28872 0
0.28875 0
0.28878 0
0.28881 0
0.28884 0
0.28887 0
0.28890 0
0.28893 0
0.28896 0
0.28899 0
0.28902 0
0.28905 0
0.28908 0
0.28911 0
0.28914 0
0.28917 0
0.28920 0
0.28923 0
0.28926 0
0.28929 0
0.28932 0
0.28935 0
0.28938 0
0.28941 0
0.28944 0
0.28947 0
0.28950 0
0.28953 0
0.28956 0
0.28959 0
0.28962 0
0.28965 0
0.28968 0
0.28971 0
0.28974 0
0.28977 0
0.28980 0
0.28983 0
0.28986 0
0.28989 0
0.28992 0
0.28995 0
0.28998 0
0.29001 0
0.29004 0
0.29007 0
0.29010 0
0.29013 0
0.29016 0
0.29019 0
0.29022 0
0.29025 0
0.29028 0
0.29031 0
0.29034 0
0.29037 0
0.29040 0
0.29043 0
0.29046 0
0.29049 0
0.29052 0
0.29055 0
0.29058 0
0.29061 0
0.29064 0
0.29067 0
0.29070 0
0.29073 0
0.29076 0
0.29079 0
0.29082 0
0.29085 0
0.29088 0
0.29091 0
0.29094 0
0.29097 0
0.29100 0
0.29103 0
0.29106 0
0.29109 0
0.29112 0
0.29115 0
0.29118 0
0.29121 0
0.29124 0
0.29127 0
0.29130 0
0.29133 0
0.29136 0
0.29139 0
0.29142 0
0.29145 0
0.29148 0
0.29151 0
0.29154 0
0.29157 0
0.29160 0
0.29163 0
0.29166 0
0.29169 0
0.29172 0
0.29175 0
0.29178 0
0.29181 0
0.29184 0
0.29187 0
0.29190 0
0.29193 0
0.29196 0
0.29199 0
0.29202 0
0.29205 0
0.29208 0
0.29211 0
0.29214 0
0.29217 0
0.29220 0
0.29223 0
0.29226 0
0.29229 0
0.29232 0
0.29235 0
0.29238 0
0.29241 0
0.29244 0
0.29247 0
0.29250 0
0.29253 0
0.29256 0
0.29259 0
0.29262 0
0.29265 0
0.29268 0
0.29271 0
0.29274 0
0.29277 0
0.29280 0
0.29283 0
0.29286 0
0.29289 0
0.29292 0
0.29295 0
0.29298 0
0.29301 0
0.29304 0
0.29307 0
0.29310 0
0.29313 0
0.29316 0
0.29319 0
0.29322 0
0.29325 0
0.29328 0
0.29331 0
0.29334 0
0.29337 0
0.29340 0
0.29343 0
0.29346 0
0.29349 0
0.29352 0
0.29355 0
0.29358 0
0.29361 0
0.29364 0
0.29367 0
0.29370 0
0.29373 0
0.29376 0
0.29379 0
0.29382 0
0.29385 0
0.29388 0
0.29391 0
0.29394 0
0.29397 0
0.29400 0
0.29403 0
0.29406 0
0.29409 0
0.29412 0
0.29415 0
0.29418 0
0.29421 0
0.29424 0
0.29427 0
0.29430 0
0.29433 0
0.29436 0
0.29439 0
0.29442 0
0.29445 0
0.29448 0
0.29451 0
0.29454 0
0.29457 0
0.29460 0
0.29463 0
0.29466 0
0.29469 0
0.29472 0
0.29475 0
0.29478 0
0.29481 0
0.29484 0
0.29487 0
0.29490 0
0.29493 0
0.29496 0
0.29499 0
0.29502 0
0.29505 0
0.29508 0
0.29511 0
0.29514 0
0.29517 0
0.29520 0
0.29523 0
0.29526 0
0.29529 0
0.29532 0
0.29535 0
0.29538 0
0.29541 0
0.29544 0
0.29547 0
0.29550 0
0.29553 0
0.29556 0
0.29559 0
0.29562 0
0.29565 0
0.29568 0
0.29571 0
0.29574 0
0.29577 0
0.29580 0
0.29583 0
0.29586 0
0.29589 0
0.29592 0
0.29595 0
0.29598 0
0.29601 0
0.29604 0
0.29607 0
0.29610 0
0.29613 0
0.29616 0
0.29619 0
0.29622 0
0.29625 0
0.29628 0
0.29631 0
0.29634 0
0.29637 0
0.29640 0
0.29643 0
0.29646 0
0.29649 0
0.29652 0
0.29655 0
0.29658 0
0.29661 0
0.29664 0
0.29667 0
0.29670 0
0.29673 0
0.29676 0
0.29679 0
0.29682 0
0.29685 0
0.29688 0
0.29691 0
0.29694 0
0.29697 0
0.29700 0
0.29703 0
0.29706 0
0.29709 0
0.29712 0
0.29715 0
0.29718 0
0.29721 0
0.29724 0
0.29727 0
0.29730 0
0.29733 0
0.29736 0
0.29739 0
0.29742 0
0.29745 0
0.29748 0
0.29751 0
0.29754 0
0.29757 0
0.29760 0
0.29763 0
0.29766 0
0.29769 0
0.29772 0
0.29775 0
0.29778 0
0.29781 0
0.29784 0
0.29787 0
0.29790 0
0.29793 0
0.29796 0
0.29799 0
0.29802 0
0.29805 0
0.29808 0
0.29811 0
0.29814 0
0.29817 0
0.29820 0
0.29823 0
0.29826 0
0.29829 0
0.29832 0
0.29835 0
0.29838 0
0.29841 0
0.29844 0
0.29847 0
0.29850 0
0.29853 0
0.29856 0
0.29859 0
0.29862 0
0.29865 0
0.29868 0
0.29871 0
0.29874 0
0.29877 0
0.29880 0
0.29883 0
0.29886 0
0.29889 0
0.29892 0
0.29895 0
0.29898 0
0.29901 0
0.29904 0
0.29907 0
0.29910 0
0.29913 0
0.29916 0
0.29919 0
0.29922 0
0.29925 0
0.29928 0
0.29931 0
0.29934 0
0.29937 0
0.29940 0
0.29943 0
0.29946 0
0.29949 0
0.29952 0
0.29955 0
0.29958 0
0.29961 0
0.29964 0
0.29967 0
0.29970 0
0.29973 0
0.29976 0
0.29979 0
0.29982 0
0.29985 0
0.29988 0
0.29991 0
0.29994 0
0.29997 0
0.30000 0
