# XXZ model at half-filling
# L=28, J=1, Delta=0.10
# Integrated conductivity, I_s(omega) via MCLM
# omega/Delta I_s(omega)

0 0.0533112
0.005 0.0939274
0.01 0.0949903
0.015 0.0951722
0.02 0.0952274
0.025 0.0952478
0.03 0.0952592
0.035 0.0952692
0.04 0.0952783
0.045 0.0952877
0.05 0.0952988
0.055 0.0953136
0.06 0.095334
0.065 0.0953598
0.07 0.0953876
0.075 0.0954145
0.08 0.0954491
0.085 0.095494
0.09 0.095539
0.095 0.0955978
0.1 0.0956556
0.105 0.0957281
0.11 0.0958009
0.115 0.0958763
0.12 0.0959613
0.125 0.0960622
0.13 0.096166
0.135 0.0962828
0.14 0.0964131
0.145 0.0965388
0.15 0.0967357
0.155 0.096883
0.16 0.0970345
0.165 0.097191
0.17 0.0973726
0.175 0.0975422
0.18 0.0977359
0.185 0.0979018
0.19 0.0980998
0.195 0.0983607
0.2 0.098594
0.205 0.0988528
0.21 0.0990918
0.215 0.0993781
0.22 0.0996465
0.225 0.100002
0.23 0.100372
0.235 0.100697
0.24 0.101077
0.245 0.10149
0.25 0.101921
0.255 0.102329
0.26 0.10278
0.265 0.103274
0.27 0.103808
0.275 0.104273
0.28 0.104719
0.285 0.105153
0.29 0.105578
0.295 0.105994
0.3 0.106399
0.305 0.106809
0.31 0.107143
0.315 0.107516
0.32 0.10788
0.325 0.108188
0.33 0.108541
0.335 0.108834
0.34 0.109086
0.345 0.109345
0.35 0.109595
0.355 0.109813
0.36 0.110044
0.365 0.110267
0.37 0.110515
0.375 0.110731
0.38 0.110926
0.385 0.111124
0.39 0.111334
0.395 0.111522
0.4 0.11175
0.405 0.11195
0.41 0.112083
0.415 0.112242
0.42 0.112415
0.425 0.112545
0.43 0.112702
0.435 0.112843
0.44 0.112985
0.445 0.11329
0.45 0.113413
0.455 0.113521
0.46 0.113687
0.465 0.11382
0.47 0.113929
0.475 0.114063
0.48 0.114175
0.485 0.114296
0.49 0.114398
0.495 0.114494
0.5 0.114587
0.505 0.114686
0.51 0.114772
0.515 0.114866
0.52 0.115091
0.525 0.115182
0.53 0.115359
0.535 0.115477
0.54 0.115564
0.545 0.115661
0.55 0.11574
0.555 0.115814
0.56 0.115883
0.565 0.116072
0.57 0.116171
0.575 0.116241
0.58 0.116314
0.585 0.116383
0.59 0.116451
0.595 0.116512
0.6 0.116594
0.605 0.116672
0.61 0.116732
0.615 0.116802
0.62 0.116851
0.625 0.116903
0.63 0.116964
0.635 0.117014
0.64 0.117063
0.645 0.117109
0.65 0.117152
0.655 0.11721
0.66 0.117265
0.665 0.117306
0.67 0.117391
0.675 0.117439
0.68 0.117482
0.685 0.117517
0.69 0.117556
0.695 0.117613
0.7 0.117647
0.705 0.117675
0.71 0.117713
0.715 0.117747
0.72 0.117781
0.725 0.11782
0.73 0.117852
0.735 0.117885
0.74 0.11792
0.745 0.117947
0.75 0.117978
0.755 0.118006
0.76 0.118032
0.765 0.118062
0.77 0.118087
0.775 0.118117
0.78 0.118146
0.785 0.118174
0.79 0.1182
0.795 0.118224
0.8 0.118247
0.805 0.118271
0.81 0.118297
0.815 0.118317
0.82 0.118338
0.825 0.118365
0.83 0.118386
0.835 0.118404
0.84 0.118421
0.845 0.118443
0.85 0.118464
0.855 0.118481
0.86 0.118498
0.865 0.118514
0.87 0.118534
0.875 0.118553
0.88 0.118572
0.885 0.11859
0.89 0.118609
0.895 0.118625
0.9 0.11864
0.905 0.118656
0.91 0.118676
0.915 0.118689
0.92 0.118704
0.925 0.118721
0.93 0.118734
0.935 0.118749
0.94 0.118763
0.945 0.118777
0.95 0.118789
0.955 0.118801
0.96 0.118816
0.965 0.118829
0.97 0.118842
0.975 0.118856
0.98 0.118869
0.985 0.118882
0.99 0.118894
0.995 0.118907
1 0.11892
1.005 0.118931
1.01 0.118943
1.015 0.118956
1.02 0.118967
1.025 0.119
1.03 0.119012
1.035 0.119024
1.04 0.119034
1.045 0.119046
1.05 0.119057
1.055 0.119067
1.06 0.119082
1.065 0.119094
1.07 0.119105
1.075 0.119118
1.08 0.11913
1.085 0.11914
1.09 0.119152
1.095 0.119162
1.1 0.119174
1.105 0.119184
1.11 0.119195
1.115 0.119204
1.12 0.119215
1.125 0.119225
1.13 0.119234
1.135 0.119244
1.14 0.119254
1.145 0.119264
1.15 0.119272
1.155 0.119282
1.16 0.11929
1.165 0.1193
1.17 0.119309
1.175 0.119318
1.18 0.119327
1.185 0.119335
1.19 0.119344
1.195 0.119354
1.2 0.119364
1.205 0.119373
1.21 0.119381
1.215 0.119391
1.22 0.1194
1.225 0.11941
1.23 0.119422
1.235 0.11943
1.24 0.119438
1.245 0.119447
1.25 0.119455
1.255 0.119463
1.26 0.119473
1.265 0.119482
1.27 0.11949
1.275 0.119501
1.28 0.119509
1.285 0.119517
1.29 0.119526
1.295 0.119534
1.3 0.119541
1.305 0.119549
1.31 0.119557
1.315 0.119564
1.32 0.119572
1.325 0.119582
1.33 0.119591
1.335 0.119598
1.34 0.119607
1.345 0.119615
1.35 0.119624
1.355 0.119633
1.36 0.119641
1.365 0.119649
1.37 0.119657
1.375 0.119665
1.38 0.119674
1.385 0.119682
1.39 0.119691
1.395 0.119698
1.4 0.119707
1.405 0.119716
1.41 0.119723
1.415 0.11973
1.42 0.119739
1.425 0.119747
1.43 0.119755
1.435 0.119763
1.44 0.11977
1.445 0.119778
1.45 0.119786
1.455 0.119794
1.46 0.119801
1.465 0.119809
1.47 0.119817
1.475 0.119826
1.48 0.119834
1.485 0.119841
1.49 0.119849
1.495 0.119857
1.5 0.119864
1.505 0.119871
1.51 0.119879
1.515 0.119886
1.52 0.119894
1.525 0.119901
1.53 0.11991
1.535 0.119917
1.54 0.119923
1.545 0.119932
1.55 0.119938
1.555 0.119945
1.56 0.119952
1.565 0.119959
1.57 0.119966
1.575 0.119972
1.58 0.11998
1.585 0.119987
1.59 0.119994
1.595 0.120001
1.6 0.120008
1.605 0.120015
1.61 0.120021
1.615 0.120028
1.62 0.120035
1.625 0.120041
1.63 0.120047
1.635 0.120053
1.64 0.12006
1.645 0.120066
1.65 0.120073
1.655 0.120079
1.66 0.120085
1.665 0.120092
1.67 0.120098
1.675 0.120104
1.68 0.120111
1.685 0.120117
1.69 0.120123
1.695 0.120129
1.7 0.120135
1.705 0.120141
1.71 0.120148
1.715 0.120154
1.72 0.12016
1.725 0.120166
1.73 0.120172
1.735 0.120177
1.74 0.120183
1.745 0.120189
1.75 0.120195
1.755 0.120201
1.76 0.120207
1.765 0.120212
1.77 0.120218
1.775 0.120224
1.78 0.12023
1.785 0.120237
1.79 0.120242
1.795 0.120248
1.8 0.120254
1.805 0.120261
1.81 0.120266
1.815 0.120273
1.82 0.120278
1.825 0.120283
1.83 0.120289
1.835 0.120295
1.84 0.1203
1.845 0.120306
1.85 0.120313
1.855 0.120318
1.86 0.120323
1.865 0.120329
1.87 0.120335
1.875 0.12034
1.88 0.120346
1.885 0.120352
1.89 0.120359
1.895 0.120365
1.9 0.120371
1.905 0.120377
1.91 0.120382
1.915 0.120388
1.92 0.120394
1.925 0.120399
1.93 0.120405
1.935 0.12041
1.94 0.120416
1.945 0.120421
1.95 0.120426
1.955 0.120432
1.96 0.120437
1.965 0.120442
1.97 0.120447
1.975 0.120452
1.98 0.120457
1.985 0.120462
1.99 0.120467
1.995 0.120472
2 0.120477
2.005 0.120482
2.01 0.120489
2.015 0.120494
2.02 0.120499
2.025 0.120503
2.03 0.120509
2.035 0.120514
2.04 0.120519
2.045 0.120523
2.05 0.120528
2.055 0.120533
2.06 0.120538
2.065 0.120542
2.07 0.120547
2.075 0.120551
2.08 0.120556
2.085 0.120561
2.09 0.120565
2.095 0.12057
2.1 0.120574
2.105 0.120579
2.11 0.120583
2.115 0.120587
2.12 0.120591
2.125 0.120596
2.13 0.1206
2.135 0.120604
2.14 0.120609
2.145 0.120614
2.15 0.120618
2.155 0.120623
2.16 0.120628
2.165 0.120632
2.17 0.120636
2.175 0.120641
2.18 0.120645
2.185 0.12065
2.19 0.120654
2.195 0.120659
2.2 0.120663
2.205 0.120667
2.21 0.120672
2.215 0.120676
2.22 0.12068
2.225 0.120685
2.23 0.120689
2.235 0.120693
2.24 0.120698
2.245 0.120703
2.25 0.120707
2.255 0.120711
2.26 0.120715
2.265 0.12072
2.27 0.120725
2.275 0.120729
2.28 0.120733
2.285 0.120737
2.29 0.120741
2.295 0.120746
2.3 0.12075
2.305 0.120754
2.31 0.120758
2.315 0.120762
2.32 0.120766
2.325 0.12077
2.33 0.120774
2.335 0.120779
2.34 0.120783
2.345 0.120787
2.35 0.120791
2.355 0.120795
2.36 0.120799
2.365 0.120804
2.37 0.120808
2.375 0.120812
2.38 0.120816
2.385 0.120819
2.39 0.120823
2.395 0.120827
2.4 0.120831
2.405 0.120835
2.41 0.120839
2.415 0.120842
2.42 0.120846
2.425 0.12085
2.43 0.120854
2.435 0.120857
2.44 0.120861
2.445 0.120865
2.45 0.120869
2.455 0.120873
2.46 0.120876
2.465 0.12088
2.47 0.120884
2.475 0.120887
2.48 0.120891
2.485 0.120895
2.49 0.120898
2.495 0.120902
2.5 0.120906
2.505 0.12091
2.51 0.120913
2.515 0.120917
2.52 0.120921
2.525 0.120924
2.53 0.120927
2.535 0.120931
2.54 0.120935
2.545 0.120938
2.55 0.120942
2.555 0.120945
2.56 0.120948
2.565 0.120952
2.57 0.120955
2.575 0.120959
2.58 0.120962
2.585 0.120965
2.59 0.120969
2.595 0.120972
2.6 0.120975
2.605 0.120979
2.61 0.120982
2.615 0.120985
2.62 0.120988
2.625 0.120991
2.63 0.120995
2.635 0.120998
2.64 0.121001
2.645 0.121004
2.65 0.121007
2.655 0.12101
2.66 0.121014
2.665 0.121017
2.67 0.12102
2.675 0.121023
2.68 0.121026
2.685 0.121029
2.69 0.121032
2.695 0.121035
2.7 0.121038
2.705 0.121041
2.71 0.121044
2.715 0.121047
2.72 0.12105
2.725 0.121053
2.73 0.121056
2.735 0.121059
2.74 0.121062
2.745 0.121065
2.75 0.121067
2.755 0.12107
2.76 0.121073
2.765 0.121076
2.77 0.121079
2.775 0.121082
2.78 0.121085
2.785 0.121088
2.79 0.121091
2.795 0.121093
2.8 0.121096
2.805 0.121099
2.81 0.121102
2.815 0.121105
2.82 0.121108
2.825 0.121111
2.83 0.121113
2.835 0.121116
2.84 0.12112
2.845 0.121122
2.85 0.121125
2.855 0.121128
2.86 0.12113
2.865 0.121133
2.87 0.121136
2.875 0.121138
2.88 0.121141
2.885 0.121144
2.89 0.121146
2.895 0.121149
2.9 0.121152
2.905 0.121154
2.91 0.121157
2.915 0.12116
2.92 0.121162
2.925 0.121165
2.93 0.121167
2.935 0.12117
2.94 0.121172
2.945 0.121175
2.95 0.121177
2.955 0.12118
2.96 0.121182
2.965 0.121185
2.97 0.121187
2.975 0.12119
2.98 0.121192
2.985 0.121195
2.99 0.121197
2.995 0.1212
3 0.121202
3.005 0.121204
3.01 0.121207
3.015 0.121209
3.02 0.121212
3.025 0.121214
3.03 0.121216
3.035 0.121218
3.04 0.121221
3.045 0.121223
3.05 0.121226
3.055 0.121229
3.06 0.121231
3.065 0.121234
3.07 0.121236
3.075 0.121239
3.08 0.121241
3.085 0.121243
3.09 0.121245
3.095 0.121248
3.1 0.12125
3.105 0.121253
3.11 0.121255
3.115 0.121257
3.12 0.12126
3.125 0.121262
3.13 0.121264
3.135 0.121266
3.14 0.121269
3.145 0.121271
3.15 0.121273
3.155 0.121275
3.16 0.121277
3.165 0.12128
3.17 0.121282
3.175 0.121284
3.18 0.121286
3.185 0.121289
3.19 0.121291
3.195 0.121293
3.2 0.121295
3.205 0.121297
3.21 0.121299
3.215 0.121301
3.22 0.121303
3.225 0.121305
3.23 0.121307
3.235 0.121309
3.24 0.121311
3.245 0.121314
3.25 0.121316
3.255 0.121318
3.26 0.12132
3.265 0.121322
3.27 0.121324
3.275 0.121326
3.28 0.121328
3.285 0.12133
3.29 0.121332
3.295 0.121334
3.3 0.121336
3.305 0.121338
3.31 0.12134
3.315 0.121342
3.32 0.121344
3.325 0.121346
3.33 0.121348
3.335 0.12135
3.34 0.121351
3.345 0.121354
3.35 0.121356
3.355 0.121357
3.36 0.121359
3.365 0.121361
3.37 0.121363
3.375 0.121365
3.38 0.121367
3.385 0.121369
3.39 0.12137
3.395 0.121372
3.4 0.121374
3.405 0.121376
3.41 0.121378
3.415 0.121379
3.42 0.121381
3.425 0.121383
3.43 0.121384
3.435 0.121386
3.44 0.121387
3.445 0.121389
3.45 0.121391
3.455 0.121392
3.46 0.121394
3.465 0.121396
3.47 0.121398
3.475 0.121399
3.48 0.121401
3.485 0.121403
3.49 0.121404
3.495 0.121406
3.5 0.121407
3.505 0.121409
3.51 0.12141
3.515 0.121412
3.52 0.121413
3.525 0.121415
3.53 0.121416
3.535 0.121418
3.54 0.12142
3.545 0.121421
3.55 0.121423
3.555 0.121424
3.56 0.121426
3.565 0.121427
3.57 0.121429
3.575 0.12143
3.58 0.121432
3.585 0.121433
3.59 0.121435
3.595 0.121436
3.6 0.121438
3.605 0.121439
3.61 0.121441
3.615 0.121442
3.62 0.121443
3.625 0.121445
3.63 0.121446
3.635 0.121448
3.64 0.121449
3.645 0.121451
3.65 0.121452
3.655 0.121453
3.66 0.121455
3.665 0.121456
3.67 0.121457
3.675 0.121459
3.68 0.12146
3.685 0.121462
3.69 0.121463
3.695 0.121464
3.7 0.121466
3.705 0.121467
3.71 0.121469
3.715 0.12147
3.72 0.121472
3.725 0.121473
3.73 0.121474
3.735 0.121476
3.74 0.121477
3.745 0.121478
3.75 0.12148
3.755 0.121481
3.76 0.121482
3.765 0.121484
3.77 0.121485
3.775 0.121486
3.78 0.121488
3.785 0.121489
3.79 0.12149
3.795 0.121492
3.8 0.121493
3.805 0.121494
3.81 0.121496
3.815 0.121497
3.82 0.121498
3.825 0.121499
3.83 0.121501
3.835 0.121502
3.84 0.121503
3.845 0.121504
3.85 0.121506
3.855 0.121507
3.86 0.121508
3.865 0.121509
3.87 0.12151
3.875 0.121512
3.88 0.121513
3.885 0.121514
3.89 0.121515
3.895 0.121516
3.9 0.121518
3.905 0.121519
3.91 0.12152
3.915 0.121521
3.92 0.121522
3.925 0.121524
3.93 0.121525
3.935 0.121526
3.94 0.121527
3.945 0.121528
3.95 0.121529
3.955 0.12153
3.96 0.121532
3.965 0.121533
3.97 0.121534
3.975 0.121535
3.98 0.121536
3.985 0.121537
3.99 0.121538
3.995 0.12154
4 0.121541
4.005 0.121542
4.01 0.121544
4.015 0.121545
4.02 0.121546
4.025 0.121547
4.03 0.121548
4.035 0.121549
4.04 0.12155
4.045 0.121551
4.05 0.121553
4.055 0.121554
4.06 0.121555
4.065 0.121556
4.07 0.121557
4.075 0.121558
4.08 0.121559
4.085 0.12156
4.09 0.121562
4.095 0.121563
4.1 0.121564
4.105 0.121565
4.11 0.121566
4.115 0.121567
4.12 0.121569
4.125 0.12157
4.13 0.121571
4.135 0.121572
4.14 0.121573
4.145 0.121574
4.15 0.121575
4.155 0.121576
4.16 0.121578
4.165 0.121579
4.17 0.12158
4.175 0.121581
4.18 0.121582
4.185 0.121583
4.19 0.121584
4.195 0.121585
4.2 0.121586
4.205 0.121587
4.21 0.121588
4.215 0.121589
4.22 0.12159
4.225 0.121592
4.23 0.121593
4.235 0.121594
4.24 0.121595
4.245 0.121596
4.25 0.121597
4.255 0.121598
4.26 0.121599
4.265 0.1216
4.27 0.121601
4.275 0.121602
4.28 0.121603
4.285 0.121604
4.29 0.121605
4.295 0.121606
4.3 0.121607
4.305 0.121608
4.31 0.121609
4.315 0.12161
4.32 0.121611
4.325 0.121612
4.33 0.121612
4.335 0.121613
4.34 0.121614
4.345 0.121615
4.35 0.121616
4.355 0.121617
4.36 0.121618
4.365 0.121619
4.37 0.12162
4.375 0.121621
4.38 0.121622
4.385 0.121622
4.39 0.121623
4.395 0.121624
4.4 0.121625
4.405 0.121626
4.41 0.121627
4.415 0.121627
4.42 0.121628
4.425 0.121629
4.43 0.12163
4.435 0.121631
4.44 0.121632
4.445 0.121633
4.45 0.121633
4.455 0.121634
4.46 0.121635
4.465 0.121636
4.47 0.121637
4.475 0.121637
4.48 0.121638
4.485 0.121639
4.49 0.12164
4.495 0.121641
4.5 0.121642
4.505 0.121642
4.51 0.121643
4.515 0.121644
4.52 0.121645
4.525 0.121646
4.53 0.121646
4.535 0.121647
4.54 0.121648
4.545 0.121649
4.55 0.121649
4.555 0.12165
4.56 0.121651
4.565 0.121652
4.57 0.121653
4.575 0.121653
4.58 0.121654
4.585 0.121655
4.59 0.121656
4.595 0.121656
4.6 0.121657
4.605 0.121658
4.61 0.121659
4.615 0.12166
4.62 0.12166
4.625 0.121661
4.63 0.121662
4.635 0.121663
4.64 0.121663
4.645 0.121664
4.65 0.121665
4.655 0.121666
4.66 0.121666
4.665 0.121667
4.67 0.121668
4.675 0.121668
4.68 0.121669
4.685 0.12167
4.69 0.121671
4.695 0.121671
4.7 0.121672
4.705 0.121673
4.71 0.121674
4.715 0.121674
4.72 0.121675
4.725 0.121676
4.73 0.121676
4.735 0.121677
4.74 0.121678
4.745 0.121678
4.75 0.121679
4.755 0.12168
4.76 0.12168
4.765 0.121681
4.77 0.121682
4.775 0.121682
4.78 0.121683
4.785 0.121684
4.79 0.121684
4.795 0.121685
4.8 0.121686
4.805 0.121686
4.81 0.121687
4.815 0.121687
4.82 0.121688
4.825 0.121689
4.83 0.121689
4.835 0.12169
4.84 0.121691
4.845 0.121691
4.85 0.121692
4.855 0.121693
4.86 0.121693
4.865 0.121694
4.87 0.121695
4.875 0.121695
4.88 0.121696
4.885 0.121697
4.89 0.121697
4.895 0.121698
4.9 0.121698
4.905 0.121699
4.91 0.1217
4.915 0.1217
4.92 0.121701
4.925 0.121702
4.93 0.121702
4.935 0.121703
4.94 0.121703
4.945 0.121705
4.95 0.121705
4.955 0.121706
4.96 0.121706
4.965 0.121707
4.97 0.121708
4.975 0.121708
4.98 0.121709
4.985 0.12171
4.99 0.12171
4.995 0.121711
5 0.121711
5.005 0.121712
5.01 0.121713
5.015 0.121713
5.02 0.121714
5.025 0.121715
5.03 0.121715
5.035 0.121716
5.04 0.121717
5.045 0.121717
5.05 0.121718
5.055 0.121718
5.06 0.121719
5.065 0.12172
5.07 0.12172
5.075 0.121721
5.08 0.121722
5.085 0.121722
5.09 0.121723
5.095 0.121724
5.1 0.121724
5.105 0.121725
5.11 0.121726
5.115 0.121726
5.12 0.121727
5.125 0.121727
5.13 0.121728
5.135 0.121729
5.14 0.121729
5.145 0.12173
5.15 0.121731
5.155 0.121731
5.16 0.121732
5.165 0.121733
5.17 0.121733
5.175 0.121734
5.18 0.121735
5.185 0.121735
5.19 0.121736
5.195 0.121737
5.2 0.121737
5.205 0.121738
5.21 0.121738
5.215 0.121739
5.22 0.12174
5.225 0.12174
5.23 0.121741
5.235 0.121742
5.24 0.121742
5.245 0.121743
5.25 0.121743
5.255 0.121744
5.26 0.121745
5.265 0.121745
5.27 0.121746
5.275 0.121746
5.28 0.121747
5.285 0.121748
5.29 0.121748
5.295 0.121749
5.3 0.12175
5.305 0.12175
5.31 0.121751
5.315 0.121752
5.32 0.121752
5.325 0.121753
5.33 0.121754
5.335 0.121754
5.34 0.121755
5.345 0.121755
5.35 0.121756
5.355 0.121756
5.36 0.121757
5.365 0.121758
5.37 0.121758
5.375 0.121759
5.38 0.12176
5.385 0.12176
5.39 0.121761
5.395 0.121761
5.4 0.121762
5.405 0.121763
5.41 0.121763
5.415 0.121764
5.42 0.121765
5.425 0.121765
5.43 0.121766
5.435 0.121766
5.44 0.121767
5.445 0.121768
5.45 0.121768
5.455 0.121769
5.46 0.121769
5.465 0.12177
5.47 0.12177
5.475 0.121771
5.48 0.121772
5.485 0.121772
5.49 0.121773
5.495 0.121773
5.5 0.121774
5.505 0.121775
5.51 0.121775
5.515 0.121776
5.52 0.121776
5.525 0.121777
5.53 0.121778
5.535 0.121778
5.54 0.121779
5.545 0.121779
5.55 0.12178
5.555 0.121781
5.56 0.121781
5.565 0.121782
5.57 0.121782
5.575 0.121783
5.58 0.121784
5.585 0.121784
5.59 0.121785
5.595 0.121785
5.6 0.121787
5.605 0.121787
5.61 0.121788
5.615 0.121788
5.62 0.121789
5.625 0.12179
5.63 0.12179
5.635 0.121791
5.64 0.121791
5.645 0.121792
5.65 0.121792
5.655 0.121793
5.66 0.121794
5.665 0.121794
5.67 0.121795
5.675 0.121795
5.68 0.121796
5.685 0.121796
5.69 0.121797
5.695 0.121797
5.7 0.121798
5.705 0.121799
5.71 0.121799
5.715 0.1218
5.72 0.1218
5.725 0.121801
5.73 0.121801
5.735 0.121802
5.74 0.121803
5.745 0.121803
5.75 0.121804
5.755 0.121804
5.76 0.121805
5.765 0.121805
5.77 0.121806
5.775 0.121806
5.78 0.121807
5.785 0.121807
5.79 0.121808
5.795 0.121808
5.8 0.121809
5.805 0.121809
5.81 0.12181
5.815 0.12181
5.82 0.121811
5.825 0.121811
5.83 0.121812
5.835 0.121812
5.84 0.121813
5.845 0.121813
5.85 0.121814
5.855 0.121814
5.86 0.121815
5.865 0.121816
5.87 0.121816
5.875 0.121817
5.88 0.121817
5.885 0.121818
5.89 0.121818
5.895 0.121819
5.9 0.121819
5.905 0.12182
5.91 0.12182
5.915 0.121821
5.92 0.121821
5.925 0.121822
5.93 0.121822
5.935 0.121823
5.94 0.121823
5.945 0.121824
5.95 0.121824
5.955 0.121824
5.96 0.121825
5.965 0.121825
5.97 0.121826
5.975 0.121826
5.98 0.121827
5.985 0.121827
5.99 0.121828
5.995 0.121828
6 0.121829
6.005 0.121829
6.01 0.12183
6.015 0.12183
6.02 0.121831
6.025 0.121831
6.03 0.121831
6.035 0.121832
6.04 0.121832
6.045 0.121833
6.05 0.121833
6.055 0.121834
6.06 0.121834
6.065 0.121835
6.07 0.121835
6.075 0.121836
6.08 0.121836
6.085 0.121836
6.09 0.121837
6.095 0.121837
6.1 0.121838
6.105 0.121838
6.11 0.121839
6.115 0.121839
6.12 0.12184
6.125 0.12184
6.13 0.12184
6.135 0.121841
6.14 0.121841
6.145 0.121842
6.15 0.121842
6.155 0.121843
6.16 0.121843
6.165 0.121843
6.17 0.121844
6.175 0.121844
6.18 0.121845
6.185 0.121845
6.19 0.121845
6.195 0.121846
6.2 0.121846
6.205 0.121847
6.21 0.121847
6.215 0.121847
6.22 0.121848
6.225 0.121848
6.23 0.121849
6.235 0.121849
6.24 0.121849
6.245 0.12185
6.25 0.12185
6.255 0.121851
6.26 0.121851
6.265 0.121851
6.27 0.121852
6.275 0.121852
6.28 0.121853
6.285 0.121853
6.29 0.121853
6.295 0.121854
6.3 0.121854
6.305 0.121854
6.31 0.121855
6.315 0.121855
6.32 0.121856
6.325 0.121856
6.33 0.121856
6.335 0.121857
6.34 0.121857
6.345 0.121857
6.35 0.121858
6.355 0.121858
6.36 0.121858
6.365 0.121859
6.37 0.121859
6.375 0.12186
6.38 0.12186
6.385 0.12186
6.39 0.121861
6.395 0.121861
6.4 0.121861
6.405 0.121862
6.41 0.121862
6.415 0.121862
6.42 0.121863
6.425 0.121863
6.43 0.121863
6.435 0.121864
6.44 0.121864
6.445 0.121865
6.45 0.121865
6.455 0.121865
6.46 0.121866
6.465 0.121866
6.47 0.121866
6.475 0.121867
6.48 0.121867
6.485 0.121868
6.49 0.121868
6.495 0.121868
6.5 0.121869
6.505 0.121869
6.51 0.121869
6.515 0.12187
6.52 0.12187
6.525 0.121871
6.53 0.121871
6.535 0.121871
6.54 0.121872
6.545 0.121872
6.55 0.121873
6.555 0.121873
6.56 0.121873
6.565 0.121874
6.57 0.121874
6.575 0.121875
6.58 0.121875
6.585 0.121875
6.59 0.121876
6.595 0.121876
6.6 0.121876
6.605 0.121877
6.61 0.121877
6.615 0.121878
6.62 0.121878
6.625 0.121878
6.63 0.121879
6.635 0.121879
6.64 0.12188
6.645 0.12188
6.65 0.12188
6.655 0.121881
6.66 0.121881
6.665 0.121882
6.67 0.121882
6.675 0.121882
6.68 0.121883
6.685 0.121883
6.69 0.121883
6.695 0.121884
6.7 0.121884
6.705 0.121885
6.71 0.121885
6.715 0.121885
6.72 0.121886
6.725 0.121886
6.73 0.121887
6.735 0.121887
6.74 0.121887
6.745 0.121888
6.75 0.121888
6.755 0.121888
6.76 0.121889
6.765 0.121889
6.77 0.12189
6.775 0.12189
6.78 0.12189
6.785 0.121891
6.79 0.121891
6.795 0.121892
6.8 0.121892
6.805 0.121892
6.81 0.121893
6.815 0.121893
6.82 0.121893
6.825 0.121894
6.83 0.121894
6.835 0.121894
6.84 0.121895
6.845 0.121895
6.85 0.121896
6.855 0.121896
6.86 0.121896
6.865 0.121897
6.87 0.121897
6.875 0.121897
6.88 0.121898
6.885 0.121898
6.89 0.121899
6.895 0.121899
6.9 0.121899
6.905 0.1219
6.91 0.1219
6.915 0.1219
6.92 0.121901
6.925 0.121901
6.93 0.121901
6.935 0.121902
6.94 0.121902
6.945 0.121902
6.95 0.121903
6.955 0.121903
6.96 0.121904
6.965 0.121904
6.97 0.121904
6.975 0.121905
6.98 0.121905
6.985 0.121905
6.99 0.121906
6.995 0.121906
7 0.121906
7.005 0.121907
7.01 0.121907
7.015 0.121908
7.02 0.121908
7.025 0.121908
7.03 0.121909
7.035 0.121909
7.04 0.121909
7.045 0.12191
7.05 0.12191
7.055 0.12191
7.06 0.121911
7.065 0.121911
7.07 0.121911
7.075 0.121912
7.08 0.121912
7.085 0.121913
7.09 0.121913
7.095 0.121913
7.1 0.121914
7.105 0.121914
7.11 0.121914
7.115 0.121915
7.12 0.121915
7.125 0.121915
7.13 0.121916
7.135 0.121916
7.14 0.121916
7.145 0.121917
7.15 0.121917
7.155 0.121918
7.16 0.121918
7.165 0.121918
7.17 0.121919
7.175 0.121919
7.18 0.121919
7.185 0.12192
7.19 0.12192
7.195 0.12192
7.2 0.121921
7.205 0.121921
7.21 0.121921
7.215 0.121922
7.22 0.121922
7.225 0.121922
7.23 0.121923
7.235 0.121923
7.24 0.121923
7.245 0.121924
7.25 0.121924
7.255 0.121924
7.26 0.121925
7.265 0.121925
7.27 0.121925
7.275 0.121926
7.28 0.121926
7.285 0.121926
7.29 0.121926
7.295 0.121927
7.3 0.121927
7.305 0.121927
7.31 0.121928
7.315 0.121928
7.32 0.121928
7.325 0.121929
7.33 0.121929
7.335 0.121929
7.34 0.12193
7.345 0.12193
7.35 0.12193
7.355 0.121931
7.36 0.121931
7.365 0.121931
7.37 0.121931
7.375 0.121932
7.38 0.121932
7.385 0.121932
7.39 0.121933
7.395 0.121933
7.4 0.121933
7.405 0.121933
7.41 0.121934
7.415 0.121934
7.42 0.121934
7.425 0.121935
7.43 0.121935
7.435 0.121935
7.44 0.121935
7.445 0.121936
7.45 0.121936
7.455 0.121936
7.46 0.121936
7.465 0.121937
7.47 0.121937
7.475 0.121937
7.48 0.121937
7.485 0.121938
7.49 0.121938
7.495 0.121938
7.5 0.121939
7.505 0.121939
7.51 0.121939
7.515 0.121939
7.52 0.12194
7.525 0.12194
7.53 0.12194
7.535 0.12194
7.54 0.121941
7.545 0.121941
7.55 0.121941
7.555 0.121941
7.56 0.121942
7.565 0.121942
7.57 0.121942
7.575 0.121942
7.58 0.121943
7.585 0.121943
7.59 0.121943
7.595 0.121944
7.6 0.121944
7.605 0.121944
7.61 0.121944
7.615 0.121945
7.62 0.121945
7.625 0.121945
7.63 0.121945
7.635 0.121946
7.64 0.121946
7.645 0.121946
7.65 0.121946
7.655 0.121947
7.66 0.121947
7.665 0.121947
7.67 0.121947
7.675 0.121948
7.68 0.121948
7.685 0.121948
7.69 0.121948
7.695 0.121949
7.7 0.121949
7.705 0.121949
7.71 0.121949
7.715 0.12195
7.72 0.12195
7.725 0.12195
7.73 0.12195
7.735 0.121951
7.74 0.121951
7.745 0.121951
7.75 0.121951
7.755 0.121952
7.76 0.121952
7.765 0.121952
7.77 0.121952
7.775 0.121953
7.78 0.121953
7.785 0.121953
7.79 0.121953
7.795 0.121953
7.8 0.121954
7.805 0.121954
7.81 0.121954
7.815 0.121954
7.82 0.121955
7.825 0.121955
7.83 0.121955
7.835 0.121955
7.84 0.121956
7.845 0.121956
7.85 0.121956
7.855 0.121956
7.86 0.121956
7.865 0.121957
7.87 0.121957
7.875 0.121957
7.88 0.121957
7.885 0.121958
7.89 0.121958
7.895 0.121958
7.9 0.121958
7.905 0.121959
7.91 0.121959
7.915 0.121959
7.92 0.121959
7.925 0.121959
7.93 0.12196
7.935 0.12196
7.94 0.12196
7.945 0.12196
7.95 0.121961
7.955 0.121961
7.96 0.121961
7.965 0.121961
7.97 0.121962
7.975 0.121962
7.98 0.121962
7.985 0.121962
7.99 0.121962
7.995 0.121963
8 0.121963
8.005 0.121963
8.01 0.121963
8.015 0.121964
8.02 0.121964
8.025 0.121964
8.03 0.121964
8.035 0.121964
8.04 0.121965
8.045 0.121965
8.05 0.121965
8.055 0.121965
8.06 0.121965
8.065 0.121966
8.07 0.121966
8.075 0.121966
8.08 0.121966
8.085 0.121966
8.09 0.121967
8.095 0.121967
8.1 0.121967
8.105 0.121967
8.11 0.121967
8.115 0.121968
8.12 0.121968
8.125 0.121968
8.13 0.121968
8.135 0.121968
8.14 0.121969
8.145 0.121969
8.15 0.121969
8.155 0.121969
8.16 0.121969
8.165 0.12197
8.17 0.12197
8.175 0.12197
8.18 0.12197
8.185 0.12197
8.19 0.121971
8.195 0.121971
8.2 0.121971
8.205 0.121971
8.21 0.121971
8.215 0.121972
8.22 0.121972
8.225 0.121972
8.23 0.121972
8.235 0.121972
8.24 0.121973
8.245 0.121973
8.25 0.121973
8.255 0.121973
8.26 0.121973
8.265 0.121973
8.27 0.121974
8.275 0.121974
8.28 0.121974
8.285 0.121974
8.29 0.121974
8.295 0.121975
8.3 0.121975
8.305 0.121975
8.31 0.121975
8.315 0.121975
8.32 0.121976
8.325 0.121976
8.33 0.121976
8.335 0.121976
8.34 0.121976
8.345 0.121976
8.35 0.121977
8.355 0.121977
8.36 0.121977
8.365 0.121977
8.37 0.121977
8.375 0.121978
8.38 0.121978
8.385 0.121978
8.39 0.121978
8.395 0.121978
8.4 0.121979
8.405 0.121979
8.41 0.121979
8.415 0.121979
8.42 0.121979
8.425 0.12198
8.43 0.12198
8.435 0.12198
8.44 0.12198
8.445 0.12198
8.45 0.12198
8.455 0.121981
8.46 0.121981
8.465 0.121981
8.47 0.121981
8.475 0.121981
8.48 0.121982
8.485 0.121982
8.49 0.121982
8.495 0.121982
8.5 0.121982
8.505 0.121983
8.51 0.121983
8.515 0.121983
8.52 0.121983
8.525 0.121983
8.53 0.121984
8.535 0.121984
8.54 0.121984
8.545 0.121984
8.55 0.121984
8.555 0.121985
8.56 0.121985
8.565 0.121985
8.57 0.121985
8.575 0.121985
8.58 0.121986
8.585 0.121986
8.59 0.121986
8.595 0.121986
8.6 0.121986
8.605 0.121987
8.61 0.121987
8.615 0.121987
8.62 0.121987
8.625 0.121987
8.63 0.121988
8.635 0.121988
8.64 0.121988
8.645 0.121988
8.65 0.121988
8.655 0.121988
8.66 0.121989
8.665 0.121989
8.67 0.121989
8.675 0.121989
8.68 0.121989
8.685 0.12199
8.69 0.12199
8.695 0.12199
8.7 0.12199
8.705 0.12199
8.71 0.12199
8.715 0.121991
8.72 0.121991
8.725 0.121991
8.73 0.121991
8.735 0.121991
8.74 0.121992
8.745 0.121992
8.75 0.121992
8.755 0.121992
8.76 0.121992
8.765 0.121992
8.77 0.121993
8.775 0.121993
8.78 0.121993
8.785 0.121993
8.79 0.121993
8.795 0.121993
8.8 0.121994
8.805 0.121994
8.81 0.121994
8.815 0.121994
8.82 0.121994
8.825 0.121995
8.83 0.121995
8.835 0.121995
8.84 0.121995
8.845 0.121995
8.85 0.121995
8.855 0.121996
8.86 0.121996
8.865 0.121996
8.87 0.121996
8.875 0.121996
8.88 0.121997
8.885 0.121997
8.89 0.121997
8.895 0.121997
8.9 0.121997
8.905 0.121997
8.91 0.121998
8.915 0.121998
8.92 0.121998
8.925 0.121998
8.93 0.121998
8.935 0.121999
8.94 0.121999
8.945 0.121999
8.95 0.121999
8.955 0.121999
8.96 0.122
8.965 0.122
8.97 0.122
8.975 0.122
8.98 0.122
8.985 0.122001
8.99 0.122001
8.995 0.122001
9 0.122001
9.005 0.122001
9.01 0.122002
9.015 0.122002
9.02 0.122002
9.025 0.122002
9.03 0.122002
9.035 0.122002
9.04 0.122003
9.045 0.122003
9.05 0.122003
9.055 0.122003
9.06 0.122003
9.065 0.122004
9.07 0.122004
9.075 0.122004
9.08 0.122004
9.085 0.122004
9.09 0.122004
9.095 0.122005
9.1 0.122005
9.105 0.122005
9.11 0.122005
9.115 0.122005
9.12 0.122006
9.125 0.122006
9.13 0.122006
9.135 0.122006
9.14 0.122006
9.145 0.122006
9.15 0.122007
9.155 0.122007
9.16 0.122007
9.165 0.122007
9.17 0.122007
9.175 0.122007
9.18 0.122008
9.185 0.122008
9.19 0.122008
9.195 0.122008
9.2 0.122008
9.205 0.122008
9.21 0.122009
9.215 0.122009
9.22 0.122009
9.225 0.122009
9.23 0.122009
9.235 0.122009
9.24 0.12201
9.245 0.12201
9.25 0.12201
9.255 0.12201
9.26 0.12201
9.265 0.12201
9.27 0.12201
9.275 0.122011
9.28 0.122011
9.285 0.122011
9.29 0.122011
9.295 0.122011
9.3 0.122011
9.305 0.122012
9.31 0.122012
9.315 0.122012
9.32 0.122012
9.325 0.122012
9.33 0.122012
9.335 0.122013
9.34 0.122013
9.345 0.122013
9.35 0.122013
9.355 0.122013
9.36 0.122013
9.365 0.122013
9.37 0.122014
9.375 0.122014
9.38 0.122014
9.385 0.122014
9.39 0.122014
9.395 0.122014
9.4 0.122014
9.405 0.122015
9.41 0.122015
9.415 0.122015
9.42 0.122015
9.425 0.122015
9.43 0.122015
9.435 0.122016
9.44 0.122016
9.445 0.122016
9.45 0.122016
9.455 0.122016
9.46 0.122016
9.465 0.122016
9.47 0.122017
9.475 0.122017
9.48 0.122017
9.485 0.122017
9.49 0.122017
9.495 0.122017
9.5 0.122017
9.505 0.122018
9.51 0.122018
9.515 0.122018
9.52 0.122018
9.525 0.122018
9.53 0.122018
9.535 0.122018
9.54 0.122018
9.545 0.122019
9.55 0.122019
9.555 0.122019
9.56 0.122019
9.565 0.122019
9.57 0.122019
9.575 0.122019
9.58 0.12202
9.585 0.12202
9.59 0.12202
9.595 0.12202
9.6 0.12202
9.605 0.12202
9.61 0.12202
9.615 0.12202
9.62 0.122021
9.625 0.122021
9.63 0.122021
9.635 0.122021
9.64 0.122021
9.645 0.122021
9.65 0.122021
9.655 0.122021
9.66 0.122022
9.665 0.122022
9.67 0.122022
9.675 0.122022
9.68 0.122022
9.685 0.122022
9.69 0.122022
9.695 0.122022
9.7 0.122023
9.705 0.122023
9.71 0.122023
9.715 0.122023
9.72 0.122023
9.725 0.122023
9.73 0.122023
9.735 0.122023
9.74 0.122024
9.745 0.122024
9.75 0.122024
9.755 0.122024
9.76 0.122024
9.765 0.122024
9.77 0.122024
9.775 0.122024
9.78 0.122025
9.785 0.122025
9.79 0.122025
9.795 0.122025
9.8 0.122025
9.805 0.122025
9.81 0.122025
9.815 0.122025
9.82 0.122025
9.825 0.122026
9.83 0.122026
9.835 0.122026
9.84 0.122026
9.845 0.122026
9.85 0.122026
9.855 0.122026
9.86 0.122026
9.865 0.122026
9.87 0.122027
9.875 0.122027
9.88 0.122027
9.885 0.122027
9.89 0.122027
9.895 0.122027
9.9 0.122027
9.905 0.122027
9.91 0.122027
9.915 0.122027
9.92 0.122028
9.925 0.122028
9.93 0.122028
9.935 0.122028
9.94 0.122028
9.945 0.122028
9.95 0.122028
9.955 0.122028
9.96 0.122028
9.965 0.122029
9.97 0.122029
9.975 0.122029
9.98 0.122029
9.985 0.122029
9.99 0.122029
9.995 0.122029
10 0.122029
10.005 0.122029
10.01 0.12203
10.015 0.12203
10.02 0.12203
10.025 0.12203
10.03 0.12203
10.035 0.12203
10.04 0.12203
10.045 0.12203
10.05 0.122031
10.055 0.122031
10.06 0.122031
10.065 0.122031
10.07 0.122031
10.075 0.122031
10.08 0.122031
10.085 0.122031
10.09 0.122031
10.095 0.122032
10.1 0.122032
10.105 0.122032
10.11 0.122032
10.115 0.122032
10.12 0.122032
10.125 0.122032
10.13 0.122032
10.135 0.122032
10.14 0.122033
10.145 0.122033
10.15 0.122033
10.155 0.122033
10.16 0.122033
10.165 0.122033
10.17 0.122033
10.175 0.122033
10.18 0.122033
10.185 0.122034
10.19 0.122034
10.195 0.122034
10.2 0.122034
10.205 0.122034
10.21 0.122034
10.215 0.122034
10.22 0.122034
10.225 0.122035
10.23 0.122035
10.235 0.122035
10.24 0.122035
10.245 0.122035
10.25 0.122035
10.255 0.122035
10.26 0.122035
10.265 0.122035
10.27 0.122036
10.275 0.122036
10.28 0.122036
10.285 0.122036
10.29 0.122036
10.295 0.122036
10.3 0.122036
10.305 0.122036
10.31 0.122037
10.315 0.122037
10.32 0.122037
10.325 0.122037
10.33 0.122037
10.335 0.122037
10.34 0.122037
10.345 0.122037
10.35 0.122037
10.355 0.122038
10.36 0.122038
10.365 0.122038
10.37 0.122038
10.375 0.122038
10.38 0.122038
10.385 0.122038
10.39 0.122038
10.395 0.122039
10.4 0.122039
10.405 0.122039
10.41 0.122039
10.415 0.122039
10.42 0.122039
10.425 0.122039
10.43 0.122039
10.435 0.12204
10.44 0.12204
10.445 0.12204
10.45 0.12204
10.455 0.12204
10.46 0.12204
10.465 0.12204
10.47 0.12204
10.475 0.12204
10.48 0.122041
10.485 0.122041
10.49 0.122041
10.495 0.122041
10.5 0.122041
10.505 0.122041
10.51 0.122041
10.515 0.122041
10.52 0.122042
10.525 0.122042
10.53 0.122042
10.535 0.122042
10.54 0.122042
10.545 0.122042
10.55 0.122042
10.555 0.122042
10.56 0.122043
10.565 0.122043
10.57 0.122043
10.575 0.122043
10.58 0.122043
10.585 0.122043
10.59 0.122043
10.595 0.122043
10.6 0.122043
10.605 0.122044
10.61 0.122044
10.615 0.122044
10.62 0.122044
10.625 0.122044
10.63 0.122044
10.635 0.122044
10.64 0.122044
10.645 0.122045
10.65 0.122045
10.655 0.122045
10.66 0.122045
10.665 0.122045
10.67 0.122045
10.675 0.122045
10.68 0.122045
10.685 0.122045
10.69 0.122046
10.695 0.122046
10.7 0.122046
10.705 0.122046
10.71 0.122046
10.715 0.122046
10.72 0.122046
10.725 0.122046
10.73 0.122047
10.735 0.122047
10.74 0.122047
10.745 0.122047
10.75 0.122047
10.755 0.122047
10.76 0.122047
10.765 0.122047
10.77 0.122047
10.775 0.122048
10.78 0.122048
10.785 0.122048
10.79 0.122048
10.795 0.122048
10.8 0.122048
10.805 0.122048
10.81 0.122048
10.815 0.122049
10.82 0.122049
10.825 0.122049
10.83 0.122049
10.835 0.122049
10.84 0.122049
10.845 0.122049
10.85 0.122049
10.855 0.12205
10.86 0.12205
10.865 0.12205
10.87 0.12205
10.875 0.12205
10.88 0.12205
10.885 0.12205
10.89 0.12205
10.895 0.12205
10.9 0.122051
10.905 0.122051
10.91 0.122051
10.915 0.122051
10.92 0.122051
10.925 0.122051
10.93 0.122051
10.935 0.122051
10.94 0.122051
10.945 0.122052
10.95 0.122052
10.955 0.122052
10.96 0.122052
10.965 0.122052
10.97 0.122052
10.975 0.122052
10.98 0.122052
10.985 0.122053
10.99 0.122053
10.995 0.122053
11 0.122053
11.005 0.122053
11.01 0.122053
11.015 0.122053
11.02 0.122053
11.025 0.122053
11.03 0.122054
11.035 0.122054
11.04 0.122054
11.045 0.122054
11.05 0.122054
11.055 0.122054
11.06 0.122054
11.065 0.122054
11.07 0.122054
11.075 0.122055
11.08 0.122055
11.085 0.122055
11.09 0.122055
11.095 0.122055
11.1 0.122055
11.105 0.122055
11.11 0.122055
11.115 0.122055
11.12 0.122056
11.125 0.122056
11.13 0.122056
11.135 0.122056
11.14 0.122056
11.145 0.122056
11.15 0.122056
11.155 0.122056
11.16 0.122056
11.165 0.122057
11.17 0.122057
11.175 0.122057
11.18 0.122057
11.185 0.122057
11.19 0.122057
11.195 0.122057
11.2 0.122057
11.205 0.122057
11.21 0.122057
11.215 0.122058
11.22 0.122058
11.225 0.122058
11.23 0.122058
11.235 0.122058
11.24 0.122058
11.245 0.122058
11.25 0.122058
11.255 0.122058
11.26 0.122058
11.265 0.122059
11.27 0.122059
11.275 0.122059
11.28 0.122059
11.285 0.122059
11.29 0.122059
11.295 0.122059
11.3 0.122059
11.305 0.122059
11.31 0.122059
11.315 0.12206
11.32 0.12206
11.325 0.12206
11.33 0.12206
11.335 0.12206
11.34 0.12206
11.345 0.12206
11.35 0.12206
11.355 0.12206
11.36 0.12206
11.365 0.12206
11.37 0.122061
11.375 0.122061
11.38 0.122061
11.385 0.122061
11.39 0.122061
11.395 0.122061
11.4 0.122061
11.405 0.122061
11.41 0.122061
11.415 0.122061
11.42 0.122061
11.425 0.122062
11.43 0.122062
11.435 0.122062
11.44 0.122062
11.445 0.122062
11.45 0.122062
11.455 0.122062
11.46 0.122062
11.465 0.122062
11.47 0.122062
11.475 0.122062
11.48 0.122062
11.485 0.122062
11.49 0.122063
11.495 0.122063
11.5 0.122063
11.505 0.122063
11.51 0.122063
11.515 0.122063
11.52 0.122063
11.525 0.122063
11.53 0.122063
11.535 0.122063
11.54 0.122063
11.545 0.122063
11.55 0.122063
11.555 0.122064
11.56 0.122064
11.565 0.122064
11.57 0.122064
11.575 0.122064
11.58 0.122064
11.585 0.122064
11.59 0.122064
11.595 0.122064
11.6 0.122064
11.605 0.122064
11.61 0.122064
11.615 0.122064
11.62 0.122064
11.625 0.122065
11.63 0.122065
11.635 0.122065
11.64 0.122065
11.645 0.122065
11.65 0.122065
11.655 0.122065
11.66 0.122065
11.665 0.122065
11.67 0.122065
11.675 0.122065
11.68 0.122065
11.685 0.122065
11.69 0.122065
11.695 0.122065
11.7 0.122066
11.705 0.122066
11.71 0.122066
11.715 0.122066
11.72 0.122066
11.725 0.122066
11.73 0.122066
11.735 0.122066
11.74 0.122066
11.745 0.122066
11.75 0.122066
11.755 0.122066
11.76 0.122066
11.765 0.122066
11.77 0.122066
11.775 0.122067
11.78 0.122067
11.785 0.122067
11.79 0.122067
11.795 0.122067
11.8 0.122067
11.805 0.122067
11.81 0.122067
11.815 0.122067
11.82 0.122067
11.825 0.122067
11.83 0.122067
11.835 0.122067
11.84 0.122067
11.845 0.122067
11.85 0.122068
11.855 0.122068
11.86 0.122068
11.865 0.122068
11.87 0.122068
11.875 0.122068
11.88 0.122068
11.885 0.122068
11.89 0.122068
11.895 0.122068
11.9 0.122068
11.905 0.122068
11.91 0.122068
11.915 0.122068
11.92 0.122068
11.925 0.122069
11.93 0.122069
11.935 0.122069
11.94 0.122069
11.945 0.122069
11.95 0.122069
11.955 0.122069
11.96 0.122069
11.965 0.122069
11.97 0.122069
11.975 0.122069
11.98 0.122069
11.985 0.122069
11.99 0.122069
11.995 0.122069
12 0.12207
12.005 0.12207
12.01 0.12207
12.015 0.12207
12.02 0.12207
12.025 0.12207
12.03 0.12207
12.035 0.12207
12.04 0.12207
12.045 0.12207
12.05 0.12207
12.055 0.12207
12.06 0.12207
12.065 0.12207
12.07 0.12207
12.075 0.122071
12.08 0.122071
12.085 0.122071
12.09 0.122071
12.095 0.122071
12.1 0.122071
12.105 0.122071
12.11 0.122071
12.115 0.122071
12.12 0.122071
12.125 0.122071
12.13 0.122071
12.135 0.122071
12.14 0.122071
12.145 0.122072
12.15 0.122072
12.155 0.122072
12.16 0.122072
12.165 0.122072
12.17 0.122072
12.175 0.122072
12.18 0.122072
12.185 0.122072
12.19 0.122072
12.195 0.122072
12.2 0.122072
12.205 0.122072
12.21 0.122073
12.215 0.122073
12.22 0.122073
12.225 0.122073
12.23 0.122073
12.235 0.122073
12.24 0.122073
12.245 0.122073
12.25 0.122073
12.255 0.122073
12.26 0.122073
12.265 0.122073
12.27 0.122073
12.275 0.122073
12.28 0.122074
12.285 0.122074
12.29 0.122074
12.295 0.122074
12.3 0.122074
12.305 0.122074
12.31 0.122074
12.315 0.122074
12.32 0.122074
12.325 0.122074
12.33 0.122074
12.335 0.122074
12.34 0.122074
12.345 0.122075
12.35 0.122075
12.355 0.122075
12.36 0.122075
12.365 0.122075
12.37 0.122075
12.375 0.122075
12.38 0.122075
12.385 0.122075
12.39 0.122075
12.395 0.122075
12.4 0.122075
12.405 0.122075
12.41 0.122076
12.415 0.122076
12.42 0.122076
12.425 0.122076
12.43 0.122076
12.435 0.122076
12.44 0.122076
12.445 0.122076
12.45 0.122076
12.455 0.122076
12.46 0.122076
12.465 0.122076
12.47 0.122076
12.475 0.122076
12.48 0.122077
12.485 0.122077
12.49 0.122077
12.495 0.122077
12.5 0.122077
12.505 0.122077
12.51 0.122077
12.515 0.122077
12.52 0.122077
12.525 0.122077
12.53 0.122077
12.535 0.122077
12.54 0.122077
12.545 0.122077
12.55 0.122077
12.555 0.122078
12.56 0.122078
12.565 0.122078
12.57 0.122078
12.575 0.122078
12.58 0.122078
12.585 0.122078
12.59 0.122078
12.595 0.122078
12.6 0.122078
12.605 0.122078
12.61 0.122078
12.615 0.122078
12.62 0.122078
12.625 0.122078
12.63 0.122079
12.635 0.122079
12.64 0.122079
12.645 0.122079
12.65 0.122079
12.655 0.122079
12.66 0.122079
12.665 0.122079
12.67 0.122079
12.675 0.122079
12.68 0.122079
12.685 0.122079
12.69 0.122079
12.695 0.122079
12.7 0.122079
12.705 0.122079
12.71 0.122079
12.715 0.122079
12.72 0.12208
12.725 0.12208
12.73 0.12208
12.735 0.12208
12.74 0.12208
12.745 0.12208
12.75 0.12208
12.755 0.12208
12.76 0.12208
12.765 0.12208
12.77 0.12208
12.775 0.12208
12.78 0.12208
12.785 0.12208
12.79 0.12208
12.795 0.12208
12.8 0.12208
12.805 0.12208
12.81 0.122081
12.815 0.122081
12.82 0.122081
12.825 0.122081
12.83 0.122081
12.835 0.122081
12.84 0.122081
12.845 0.122081
12.85 0.122081
12.855 0.122081
12.86 0.122081
12.865 0.122081
12.87 0.122081
12.875 0.122081
12.88 0.122081
12.885 0.122081
12.89 0.122081
12.895 0.122081
12.9 0.122082
12.905 0.122082
12.91 0.122082
12.915 0.122082
12.92 0.122082
12.925 0.122082
12.93 0.122082
12.935 0.122082
12.94 0.122082
12.945 0.122082
12.95 0.122082
12.955 0.122082
12.96 0.122082
12.965 0.122082
12.97 0.122082
12.975 0.122082
12.98 0.122082
12.985 0.122083
12.99 0.122083
12.995 0.122083
13 0.122083
13.005 0.122083
13.01 0.122083
13.015 0.122083
13.02 0.122083
13.025 0.122083
13.03 0.122083
13.035 0.122083
13.04 0.122083
13.045 0.122083
13.05 0.122083
13.055 0.122083
13.06 0.122083
13.065 0.122083
13.07 0.122083
13.075 0.122084
13.08 0.122084
13.085 0.122084
13.09 0.122084
13.095 0.122084
13.1 0.122084
13.105 0.122084
13.11 0.122084
13.115 0.122084
13.12 0.122084
13.125 0.122084
13.13 0.122084
13.135 0.122084
13.14 0.122084
13.145 0.122084
13.15 0.122084
13.155 0.122084
13.16 0.122085
13.165 0.122085
13.17 0.122085
13.175 0.122085
13.18 0.122085
13.185 0.122085
13.19 0.122085
13.195 0.122085
13.2 0.122085
13.205 0.122085
13.21 0.122085
13.215 0.122085
13.22 0.122085
13.225 0.122085
13.23 0.122085
13.235 0.122085
13.24 0.122085
13.245 0.122086
13.25 0.122086
13.255 0.122086
13.26 0.122086
13.265 0.122086
13.27 0.122086
13.275 0.122086
13.28 0.122086
13.285 0.122086
13.29 0.122086
13.295 0.122086
13.3 0.122086
13.305 0.122086
13.31 0.122086
13.315 0.122086
13.32 0.122086
13.325 0.122087
13.33 0.122087
13.335 0.122087
13.34 0.122087
13.345 0.122087
13.35 0.122087
13.355 0.122087
13.36 0.122087
13.365 0.122087
13.37 0.122087
13.375 0.122087
13.38 0.122087
13.385 0.122087
13.39 0.122087
13.395 0.122087
13.4 0.122087
13.405 0.122087
13.41 0.122088
13.415 0.122088
13.42 0.122088
13.425 0.122088
13.43 0.122088
13.435 0.122088
13.44 0.122088
13.445 0.122088
13.45 0.122088
13.455 0.122088
13.46 0.122088
13.465 0.122088
13.47 0.122088
13.475 0.122088
13.48 0.122088
13.485 0.122088
13.49 0.122088
13.495 0.122089
13.5 0.122089
13.505 0.122089
13.51 0.122089
13.515 0.122089
13.52 0.122089
13.525 0.122089
13.53 0.122089
13.535 0.122089
13.54 0.122089
13.545 0.122089
13.55 0.122089
13.555 0.122089
13.56 0.122089
13.565 0.122089
13.57 0.122089
13.575 0.122089
13.58 0.122089
13.585 0.12209
13.59 0.12209
13.595 0.12209
13.6 0.12209
13.605 0.12209
13.61 0.12209
13.615 0.12209
13.62 0.12209
13.625 0.12209
13.63 0.12209
13.635 0.12209
13.64 0.12209
13.645 0.12209
13.65 0.12209
13.655 0.12209
13.66 0.12209
13.665 0.12209
13.67 0.12209
13.675 0.12209
13.68 0.122091
13.685 0.122091
13.69 0.122091
13.695 0.122091
13.7 0.122091
13.705 0.122091
13.71 0.122091
13.715 0.122091
13.72 0.122091
13.725 0.122091
13.73 0.122091
13.735 0.122091
13.74 0.122091
13.745 0.122091
13.75 0.122091
13.755 0.122091
13.76 0.122091
13.765 0.122091
13.77 0.122091
13.775 0.122091
13.78 0.122091
13.785 0.122091
13.79 0.122092
13.795 0.122092
13.8 0.122092
13.805 0.122092
13.81 0.122092
13.815 0.122092
13.82 0.122092
13.825 0.122092
13.83 0.122092
13.835 0.122092
13.84 0.122092
13.845 0.122092
13.85 0.122092
13.855 0.122092
13.86 0.122092
13.865 0.122092
13.87 0.122092
13.875 0.122092
13.88 0.122092
13.885 0.122092
13.89 0.122092
13.895 0.122092
13.9 0.122092
13.905 0.122092
13.91 0.122093
13.915 0.122093
13.92 0.122093
13.925 0.122093
13.93 0.122093
13.935 0.122093
13.94 0.122093
13.945 0.122093
13.95 0.122093
13.955 0.122093
13.96 0.122093
13.965 0.122093
13.97 0.122093
13.975 0.122093
13.98 0.122093
13.985 0.122093
13.99 0.122093
13.995 0.122093
14 0.122093
14.005 0.122093
14.01 0.122093
14.015 0.122093
14.02 0.122093
14.025 0.122093
14.03 0.122093
14.035 0.122093
14.04 0.122094
14.045 0.122094
14.05 0.122094
14.055 0.122094
14.06 0.122094
14.065 0.122094
14.07 0.122094
14.075 0.122094
14.08 0.122094
14.085 0.122094
14.09 0.122094
14.095 0.122094
14.1 0.122094
14.105 0.122094
14.11 0.122094
14.115 0.122094
14.12 0.122094
14.125 0.122094
14.13 0.122094
14.135 0.122094
14.14 0.122094
14.145 0.122094
14.15 0.122094
14.155 0.122094
14.16 0.122094
14.165 0.122094
14.17 0.122094
14.175 0.122094
14.18 0.122095
14.185 0.122095
14.19 0.122095
14.195 0.122095
14.2 0.122095
14.205 0.122095
14.21 0.122095
14.215 0.122095
14.22 0.122095
14.225 0.122095
14.23 0.122095
14.235 0.122095
14.24 0.122095
14.245 0.122095
14.25 0.122095
14.255 0.122095
14.26 0.122095
14.265 0.122095
14.27 0.122095
14.275 0.122095
14.28 0.122095
14.285 0.122095
14.29 0.122095
14.295 0.122095
14.3 0.122095
14.305 0.122095
14.31 0.122095
14.315 0.122095
14.32 0.122095
14.325 0.122095
14.33 0.122095
14.335 0.122095
14.34 0.122096
14.345 0.122096
14.35 0.122096
14.355 0.122096
14.36 0.122096
14.365 0.122096
14.37 0.122096
14.375 0.122096
14.38 0.122096
14.385 0.122096
14.39 0.122096
14.395 0.122096
14.4 0.122096
14.405 0.122096
14.41 0.122096
14.415 0.122096
14.42 0.122096
14.425 0.122096
14.43 0.122096
14.435 0.122096
14.44 0.122096
14.445 0.122096
14.45 0.122096
14.455 0.122096
14.46 0.122096
14.465 0.122096
14.47 0.122096
14.475 0.122096
14.48 0.122096
14.485 0.122096
14.49 0.122097
14.495 0.122097
14.5 0.122097
14.505 0.122097
14.51 0.122097
14.515 0.122097
14.52 0.122097
14.525 0.122097
14.53 0.122097
14.535 0.122097
14.54 0.122097
14.545 0.122097
14.55 0.122097
14.555 0.122097
14.56 0.122097
14.565 0.122097
14.57 0.122097
14.575 0.122097
14.58 0.122097
14.585 0.122097
14.59 0.122097
14.595 0.122097
14.6 0.122097
14.605 0.122097
14.61 0.122097
14.615 0.122097
14.62 0.122098
14.625 0.122098
14.63 0.122098
14.635 0.122098
14.64 0.122098
14.645 0.122098
14.65 0.122098
14.655 0.122098
14.66 0.122098
14.665 0.122098
14.67 0.122098
14.675 0.122098
14.68 0.122098
14.685 0.122098
14.69 0.122098
14.695 0.122098
14.7 0.122098
14.705 0.122098
14.71 0.122098
14.715 0.122098
14.72 0.122098
14.725 0.122098
14.73 0.122099
14.735 0.122099
14.74 0.122099
14.745 0.122099
14.75 0.122099
14.755 0.122099
14.76 0.122099
14.765 0.122099
14.77 0.122099
14.775 0.122099
14.78 0.122099
14.785 0.122099
14.79 0.122099
14.795 0.122099
14.8 0.122099
14.805 0.122099
14.81 0.122099
14.815 0.122099
14.82 0.122099
14.825 0.122099
14.83 0.122099
14.835 0.122099
14.84 0.1221
14.845 0.1221
14.85 0.1221
14.855 0.1221
14.86 0.1221
14.865 0.1221
14.87 0.1221
14.875 0.1221
14.88 0.1221
14.885 0.1221
14.89 0.1221
14.895 0.1221
14.9 0.1221
14.905 0.1221
14.91 0.1221
14.915 0.1221
14.92 0.1221
14.925 0.1221
14.93 0.1221
14.935 0.1221
14.94 0.1221
14.945 0.1221
14.95 0.122101
14.955 0.122101
14.96 0.122101
14.965 0.122101
14.97 0.122101
14.975 0.122101
14.98 0.122101
14.985 0.122101
14.99 0.122101
14.995 0.122101
15 0.122101
15.005 0.122101
15.01 0.122101
15.015 0.122101
15.02 0.122101
15.025 0.122101
15.03 0.122101
15.035 0.122101
15.04 0.122101
15.045 0.122101
15.05 0.122101
15.055 0.122101
15.06 0.122102
15.065 0.122102
15.07 0.122102
15.075 0.122102
15.08 0.122102
15.085 0.122102
15.09 0.122102
15.095 0.122102
15.1 0.122102
15.105 0.122102
15.11 0.122102
15.115 0.122102
15.12 0.122102
15.125 0.122102
15.13 0.122102
15.135 0.122102
15.14 0.122102
15.145 0.122102
15.15 0.122102
15.155 0.122102
15.16 0.122102
15.165 0.122102
15.17 0.122103
15.175 0.122103
15.18 0.122103
15.185 0.122103
15.19 0.122103
15.195 0.122103
15.2 0.122103
15.205 0.122103
15.21 0.122103
15.215 0.122103
15.22 0.122103
15.225 0.122103
15.23 0.122103
15.235 0.122103
15.24 0.122103
15.245 0.122103
15.25 0.122103
15.255 0.122103
15.26 0.122103
15.265 0.122103
15.27 0.122103
15.275 0.122103
15.28 0.122103
15.285 0.122103
15.29 0.122103
15.295 0.122104
15.3 0.122104
15.305 0.122104
15.31 0.122104
15.315 0.122104
15.32 0.122104
15.325 0.122104
15.33 0.122104
15.335 0.122104
15.34 0.122104
15.345 0.122104
15.35 0.122104
15.355 0.122104
15.36 0.122104
15.365 0.122104
15.37 0.122104
15.375 0.122104
15.38 0.122104
15.385 0.122104
15.39 0.122104
15.395 0.122104
15.4 0.122104
15.405 0.122104
15.41 0.122104
15.415 0.122104
15.42 0.122104
15.425 0.122104
15.43 0.122105
15.435 0.122105
15.44 0.122105
15.445 0.122105
15.45 0.122105
15.455 0.122105
15.46 0.122105
15.465 0.122105
15.47 0.122105
15.475 0.122105
15.48 0.122105
15.485 0.122105
15.49 0.122105
15.495 0.122105
15.5 0.122105
15.505 0.122105
15.51 0.122105
15.515 0.122105
15.52 0.122105
15.525 0.122105
15.53 0.122105
15.535 0.122105
15.54 0.122105
15.545 0.122105
15.55 0.122105
15.555 0.122105
15.56 0.122105
15.565 0.122105
15.57 0.122105
15.575 0.122105
15.58 0.122105
15.585 0.122106
15.59 0.122106
15.595 0.122106
15.6 0.122106
15.605 0.122106
15.61 0.122106
15.615 0.122106
15.62 0.122106
15.625 0.122106
15.63 0.122106
15.635 0.122106
15.64 0.122106
15.645 0.122106
15.65 0.122106
15.655 0.122106
15.66 0.122106
15.665 0.122106
15.67 0.122106
15.675 0.122106
15.68 0.122106
15.685 0.122106
15.69 0.122106
15.695 0.122106
15.7 0.122106
15.705 0.122106
15.71 0.122106
15.715 0.122106
15.72 0.122106
15.725 0.122106
15.73 0.122106
15.735 0.122106
15.74 0.122106
15.745 0.122106
15.75 0.122106
15.755 0.122106
15.76 0.122106
15.765 0.122107
15.77 0.122107
15.775 0.122107
15.78 0.122107
15.785 0.122107
15.79 0.122107
15.795 0.122107
15.8 0.122107
15.805 0.122107
15.81 0.122107
15.815 0.122107
15.82 0.122107
15.825 0.122107
15.83 0.122107
15.835 0.122107
15.84 0.122107
15.845 0.122107
15.85 0.122107
15.855 0.122107
15.86 0.122107
15.865 0.122107
15.87 0.122107
15.875 0.122107
15.88 0.122107
15.885 0.122107
15.89 0.122107
15.895 0.122107
15.9 0.122107
15.905 0.122107
15.91 0.122107
15.915 0.122107
15.92 0.122107
15.925 0.122107
15.93 0.122107
15.935 0.122107
15.94 0.122107
15.945 0.122107
15.95 0.122107
15.955 0.122107
15.96 0.122107
15.965 0.122107
15.97 0.122107
15.975 0.122107
15.98 0.122107
15.985 0.122107
15.99 0.122108
15.995 0.122108
16 0.122108
16.005 0.122108
16.01 0.122108
16.015 0.122108
16.02 0.122108
16.025 0.122108
16.03 0.122108
16.035 0.122108
16.04 0.122108
16.045 0.122108
16.05 0.122108
16.055 0.122108
16.06 0.122108
16.065 0.122108
16.07 0.122108
16.075 0.122108
16.08 0.122108
16.085 0.122108
16.09 0.122108
16.095 0.122108
16.1 0.122108
16.105 0.122108
16.11 0.122108
16.115 0.122108
16.12 0.122108
16.125 0.122108
16.13 0.122108
16.135 0.122108
16.14 0.122108
16.145 0.122108
16.15 0.122108
16.155 0.122108
16.16 0.122108
16.165 0.122108
16.17 0.122108
16.175 0.122108
16.18 0.122108
16.185 0.122108
16.19 0.122108
16.195 0.122108
16.2 0.122108
16.205 0.122108
16.21 0.122108
16.215 0.122108
16.22 0.122108
16.225 0.122109
16.23 0.122109
16.235 0.122109
16.24 0.122109
16.245 0.122109
16.25 0.122109
16.255 0.122109
16.26 0.122109
16.265 0.122109
16.27 0.122109
16.275 0.122109
16.28 0.122109
16.285 0.122109
16.29 0.122109
16.295 0.122109
16.3 0.122109
16.305 0.122109
16.31 0.122109
16.315 0.122109
16.32 0.122109
16.325 0.122109
16.33 0.122109
16.335 0.122109
16.34 0.122109
16.345 0.122109
16.35 0.122109
16.355 0.122109
16.36 0.122109
16.365 0.122109
16.37 0.122109
16.375 0.122109
16.38 0.122109
16.385 0.122109
16.39 0.122109
16.395 0.122109
16.4 0.122109
16.405 0.122109
16.41 0.122109
16.415 0.122109
16.42 0.122109
16.425 0.12211
16.43 0.12211
16.435 0.12211
16.44 0.12211
16.445 0.12211
16.45 0.12211
16.455 0.12211
16.46 0.12211
16.465 0.12211
16.47 0.12211
16.475 0.12211
16.48 0.12211
16.485 0.12211
16.49 0.12211
16.495 0.12211
16.5 0.12211
16.505 0.12211
16.51 0.12211
16.515 0.12211
16.52 0.12211
16.525 0.12211
16.53 0.12211
16.535 0.12211
16.54 0.12211
16.545 0.12211
16.55 0.12211
16.555 0.12211
16.56 0.12211
16.565 0.12211
16.57 0.12211
16.575 0.12211
16.58 0.12211
16.585 0.12211
16.59 0.12211
16.595 0.12211
16.6 0.12211
16.605 0.12211
16.61 0.122111
16.615 0.122111
16.62 0.122111
16.625 0.122111
16.63 0.122111
16.635 0.122111
16.64 0.122111
16.645 0.122111
16.65 0.122111
16.655 0.122111
16.66 0.122111
16.665 0.122111
16.67 0.122111
16.675 0.122111
16.68 0.122111
16.685 0.122111
16.69 0.122111
16.695 0.122111
16.7 0.122111
16.705 0.122111
16.71 0.122111
16.715 0.122111
16.72 0.122111
16.725 0.122111
16.73 0.122111
16.735 0.122111
16.74 0.122111
16.745 0.122111
16.75 0.122111
16.755 0.122111
16.76 0.122111
16.765 0.122111
16.77 0.122111
16.775 0.122111
16.78 0.122111
16.785 0.122111
16.79 0.122111
16.795 0.122111
16.8 0.122112
16.805 0.122112
16.81 0.122112
16.815 0.122112
16.82 0.122112
16.825 0.122112
16.83 0.122112
16.835 0.122112
16.84 0.122112
16.845 0.122112
16.85 0.122112
16.855 0.122112
16.86 0.122112
16.865 0.122112
16.87 0.122112
16.875 0.122112
16.88 0.122112
16.885 0.122112
16.89 0.122112
16.895 0.122112
16.9 0.122112
16.905 0.122112
16.91 0.122112
16.915 0.122112
16.92 0.122112
16.925 0.122112
16.93 0.122112
16.935 0.122112
16.94 0.122112
16.945 0.122112
16.95 0.122112
16.955 0.122112
16.96 0.122112
16.965 0.122112
16.97 0.122112
16.975 0.122112
16.98 0.122112
16.985 0.122112
16.99 0.122112
16.995 0.122112
17 0.122112
17.005 0.122112
17.01 0.122112
17.015 0.122112
17.02 0.122112
17.025 0.122112
17.03 0.122112
17.035 0.122113
17.04 0.122113
17.045 0.122113
17.05 0.122113
17.055 0.122113
17.06 0.122113
17.065 0.122113
17.07 0.122113
17.075 0.122113
17.08 0.122113
17.085 0.122113
17.09 0.122113
17.095 0.122113
17.1 0.122113
17.105 0.122113
17.11 0.122113
17.115 0.122113
17.12 0.122113
17.125 0.122113
17.13 0.122113
17.135 0.122113
17.14 0.122113
17.145 0.122113
17.15 0.122113
17.155 0.122113
17.16 0.122113
17.165 0.122113
17.17 0.122113
17.175 0.122113
17.18 0.122113
17.185 0.122113
17.19 0.122113
17.195 0.122113
17.2 0.122113
17.205 0.122113
17.21 0.122113
17.215 0.122113
17.22 0.122113
17.225 0.122113
17.23 0.122113
17.235 0.122113
17.24 0.122113
17.245 0.122113
17.25 0.122113
17.255 0.122113
17.26 0.122113
17.265 0.122113
17.27 0.122113
17.275 0.122113
17.28 0.122113
17.285 0.122113
17.29 0.122113
17.295 0.122113
17.3 0.122113
17.305 0.122113
17.31 0.122114
17.315 0.122114
17.32 0.122114
17.325 0.122114
17.33 0.122114
17.335 0.122114
17.34 0.122114
17.345 0.122114
17.35 0.122114
17.355 0.122114
17.36 0.122114
17.365 0.122114
17.37 0.122114
17.375 0.122114
17.38 0.122114
17.385 0.122114
17.39 0.122114
17.395 0.122114
17.4 0.122114
17.405 0.122114
17.41 0.122114
17.415 0.122114
17.42 0.122114
17.425 0.122114
17.43 0.122114
17.435 0.122114
17.44 0.122114
17.445 0.122114
17.45 0.122114
17.455 0.122114
17.46 0.122114
17.465 0.122114
17.47 0.122114
17.475 0.122114
17.48 0.122114
17.485 0.122114
17.49 0.122114
17.495 0.122114
17.5 0.122114
17.505 0.122114
17.51 0.122114
17.515 0.122114
17.52 0.122114
17.525 0.122115
17.53 0.122115
17.535 0.122115
17.54 0.122115
17.545 0.122115
17.55 0.122115
17.555 0.122115
17.56 0.122115
17.565 0.122115
17.57 0.122115
17.575 0.122115
17.58 0.122115
17.585 0.122115
17.59 0.122115
17.595 0.122115
17.6 0.122115
17.605 0.122115
17.61 0.122115
17.615 0.122115
17.62 0.122115
17.625 0.122115
17.63 0.122115
17.635 0.122115
17.64 0.122115
17.645 0.122115
17.65 0.122115
17.655 0.122115
17.66 0.122115
17.665 0.122115
17.67 0.122115
17.675 0.122115
17.68 0.122115
17.685 0.122115
17.69 0.122115
17.695 0.122115
17.7 0.122115
17.705 0.122115
17.71 0.122115
17.715 0.122115
17.72 0.122116
17.725 0.122116
17.73 0.122116
17.735 0.122116
17.74 0.122116
17.745 0.122116
17.75 0.122116
17.755 0.122116
17.76 0.122116
17.765 0.122116
17.77 0.122116
17.775 0.122116
17.78 0.122116
17.785 0.122116
17.79 0.122116
17.795 0.122116
17.8 0.122116
17.805 0.122116
17.81 0.122116
17.815 0.122116
17.82 0.122116
17.825 0.122116
17.83 0.122116
17.835 0.122116
17.84 0.122116
17.845 0.122116
17.85 0.122116
17.855 0.122116
17.86 0.122116
17.865 0.122116
17.87 0.122116
17.875 0.122116
17.88 0.122116
17.885 0.122116
17.89 0.122116
17.895 0.122116
17.9 0.122116
17.905 0.122116
17.91 0.122116
17.915 0.122116
17.92 0.122116
17.925 0.122116
17.93 0.122116
17.935 0.122116
17.94 0.122117
17.945 0.122117
17.95 0.122117
17.955 0.122117
17.96 0.122117
17.965 0.122117
17.97 0.122117
17.975 0.122117
17.98 0.122117
17.985 0.122117
17.99 0.122117
17.995 0.122117
18 0.122117
18.005 0.122117
18.01 0.122117
18.015 0.122117
18.02 0.122117
18.025 0.122117
18.03 0.122117
18.035 0.122117
18.04 0.122117
18.045 0.122117
18.05 0.122117
18.055 0.122117
18.06 0.122117
18.065 0.122117
18.07 0.122117
18.075 0.122117
18.08 0.122117
18.085 0.122117
18.09 0.122117
18.095 0.122117
18.1 0.122117
18.105 0.122117
18.11 0.122117
18.115 0.122117
18.12 0.122117
18.125 0.122117
18.13 0.122117
18.135 0.122117
18.14 0.122117
18.145 0.122117
18.15 0.122117
18.155 0.122117
18.16 0.122117
18.165 0.122117
18.17 0.122117
18.175 0.122117
18.18 0.122117
18.185 0.122117
18.19 0.122117
18.195 0.122117
18.2 0.122117
18.205 0.122117
18.21 0.122117
18.215 0.122117
18.22 0.122117
18.225 0.122117
18.23 0.122117
18.235 0.122117
18.24 0.122118
18.245 0.122118
18.25 0.122118
18.255 0.122118
18.26 0.122118
18.265 0.122118
18.27 0.122118
18.275 0.122118
18.28 0.122118
18.285 0.122118
18.29 0.122118
18.295 0.122118
18.3 0.122118
18.305 0.122118
18.31 0.122118
18.315 0.122118
18.32 0.122118
18.325 0.122118
18.33 0.122118
18.335 0.122118
18.34 0.122118
18.345 0.122118
18.35 0.122118
18.355 0.122118
18.36 0.122118
18.365 0.122118
18.37 0.122118
18.375 0.122118
18.38 0.122118
18.385 0.122118
18.39 0.122118
18.395 0.122118
18.4 0.122118
18.405 0.122118
18.41 0.122118
18.415 0.122118
18.42 0.122118
18.425 0.122118
18.43 0.122118
18.435 0.122118
18.44 0.122118
18.445 0.122118
18.45 0.122118
18.455 0.122118
18.46 0.122118
18.465 0.122118
18.47 0.122118
18.475 0.122118
18.48 0.122118
18.485 0.122118
18.49 0.122118
18.495 0.122118
18.5 0.122118
18.505 0.122118
18.51 0.122118
18.515 0.122118
18.52 0.122118
18.525 0.122118
18.53 0.122118
18.535 0.122118
18.54 0.122118
18.545 0.122118
18.55 0.122118
18.555 0.122118
18.56 0.122118
18.565 0.122118
18.57 0.122118
18.575 0.122118
18.58 0.122118
18.585 0.122118
18.59 0.122118
18.595 0.122118
18.6 0.122118
18.605 0.122118
18.61 0.122118
18.615 0.122118
18.62 0.122118
18.625 0.122118
18.63 0.122118
18.635 0.122118
18.64 0.122118
18.645 0.122118
18.65 0.122118
18.655 0.122118
18.66 0.122118
18.665 0.122118
18.67 0.122118
18.675 0.122118
18.68 0.122118
18.685 0.122118
18.69 0.122118
18.695 0.122118
18.7 0.122118
18.705 0.122118
18.71 0.122118
18.715 0.122118
18.72 0.122118
18.725 0.122118
18.73 0.122118
18.735 0.122119
18.74 0.122119
18.745 0.122119
18.75 0.122119
18.755 0.122119
18.76 0.122119
18.765 0.122119
18.77 0.122119
18.775 0.122119
18.78 0.122119
18.785 0.122119
18.79 0.122119
18.795 0.122119
18.8 0.122119
18.805 0.122119
18.81 0.122119
18.815 0.122119
18.82 0.122119
18.825 0.122119
18.83 0.122119
18.835 0.122119
18.84 0.122119
18.845 0.122119
18.85 0.122119
18.855 0.122119
18.86 0.122119
18.865 0.122119
18.87 0.122119
18.875 0.122119
18.88 0.122119
18.885 0.122119
18.89 0.122119
18.895 0.122119
18.9 0.122119
18.905 0.122119
18.91 0.122119
18.915 0.122119
18.92 0.122119
18.925 0.122119
18.93 0.122119
18.935 0.122119
18.94 0.122119
18.945 0.122119
18.95 0.122119
18.955 0.122119
18.96 0.122119
18.965 0.122119
18.97 0.122119
18.975 0.122119
18.98 0.122119
18.985 0.122119
18.99 0.122119
18.995 0.122119
19 0.122119
19.005 0.122119
19.01 0.122119
19.015 0.122119
19.02 0.122119
19.025 0.122119
19.03 0.122119
19.035 0.122119
19.04 0.122119
19.045 0.122119
19.05 0.122119
19.055 0.122119
19.06 0.122119
19.065 0.122119
19.07 0.122119
19.075 0.122119
19.08 0.122119
19.085 0.122119
19.09 0.122119
19.095 0.122119
19.1 0.122119
19.105 0.122119
19.11 0.12212
19.115 0.12212
19.12 0.12212
19.125 0.12212
19.13 0.12212
19.135 0.12212
19.14 0.12212
19.145 0.12212
19.15 0.12212
19.155 0.12212
19.16 0.12212
19.165 0.12212
19.17 0.12212
19.175 0.12212
19.18 0.12212
19.185 0.12212
19.19 0.12212
19.195 0.12212
19.2 0.12212
19.205 0.12212
19.21 0.12212
19.215 0.12212
19.22 0.12212
19.225 0.12212
19.23 0.12212
19.235 0.12212
19.24 0.12212
19.245 0.12212
19.25 0.12212
19.255 0.12212
19.26 0.12212
19.265 0.12212
19.27 0.12212
19.275 0.12212
19.28 0.12212
19.285 0.12212
19.29 0.12212
19.295 0.12212
19.3 0.12212
19.305 0.12212
19.31 0.12212
19.315 0.12212
19.32 0.12212
19.325 0.12212
19.33 0.12212
19.335 0.12212
19.34 0.12212
19.345 0.12212
19.35 0.12212
19.355 0.12212
19.36 0.12212
19.365 0.12212
19.37 0.12212
19.375 0.12212
19.38 0.12212
19.385 0.12212
19.39 0.12212
19.395 0.12212
19.4 0.12212
19.405 0.12212
19.41 0.12212
19.415 0.122121
19.42 0.122121
19.425 0.122121
19.43 0.122121
19.435 0.122121
19.44 0.122121
19.445 0.122121
19.45 0.122121
19.455 0.122121
19.46 0.122121
19.465 0.122121
19.47 0.122121
19.475 0.122121
19.48 0.122121
19.485 0.122121
19.49 0.122121
19.495 0.122121
19.5 0.122121
19.505 0.122121
19.51 0.122121
19.515 0.122121
19.52 0.122121
19.525 0.122121
19.53 0.122121
19.535 0.122121
19.54 0.122121
19.545 0.122121
19.55 0.122121
19.555 0.122121
19.56 0.122121
19.565 0.122121
19.57 0.122121
19.575 0.122121
19.58 0.122121
19.585 0.122121
19.59 0.122121
19.595 0.122121
19.6 0.122121
19.605 0.122121
19.61 0.122121
19.615 0.122121
19.62 0.122121
19.625 0.122121
19.63 0.122121
19.635 0.122121
19.64 0.122121
19.645 0.122121
19.65 0.122121
19.655 0.122121
19.66 0.122121
19.665 0.122121
19.67 0.122121
19.675 0.122121
19.68 0.122121
19.685 0.122121
19.69 0.122121
19.695 0.122121
19.7 0.122121
19.705 0.122121
19.71 0.122121
19.715 0.122121
19.72 0.122121
19.725 0.122121
19.73 0.122121
19.735 0.122121
19.74 0.122121
19.745 0.122122
19.75 0.122122
19.755 0.122122
19.76 0.122122
19.765 0.122122
19.77 0.122122
19.775 0.122122
19.78 0.122122
19.785 0.122122
19.79 0.122122
19.795 0.122122
19.8 0.122122
19.805 0.122122
19.81 0.122122
19.815 0.122122
19.82 0.122122
19.825 0.122122
19.83 0.122122
19.835 0.122122
19.84 0.122122
19.845 0.122122
19.85 0.122122
19.855 0.122122
19.86 0.122122
19.865 0.122122
19.87 0.122122
19.875 0.122122
19.88 0.122122
19.885 0.122122
19.89 0.122122
19.895 0.122122
19.9 0.122122
19.905 0.122122
19.91 0.122122
19.915 0.122122
19.92 0.122122
19.925 0.122122
19.93 0.122122
19.935 0.122122
19.94 0.122122
19.945 0.122122
19.95 0.122122
19.955 0.122122
19.96 0.122122
19.965 0.122122
19.97 0.122122
19.975 0.122122
19.98 0.122122
19.985 0.122122
19.99 0.122122
19.995 0.122122
20 0.122122
20.005 0.122122
20.01 0.122122
20.015 0.122122
20.02 0.122122
20.025 0.122122
20.03 0.122122
20.035 0.122122
20.04 0.122122
20.045 0.122122
20.05 0.122122
20.055 0.122122
20.06 0.122122
20.065 0.122122
20.07 0.122122
20.075 0.122122
20.08 0.122122
20.085 0.122122
20.09 0.122122
20.095 0.122122
20.1 0.122122
20.105 0.122122
20.11 0.122122
20.115 0.122122
20.12 0.122122
20.125 0.122122
20.13 0.122122
20.135 0.122122
20.14 0.122122
20.145 0.122122
20.15 0.122122
20.155 0.122122
20.16 0.122122
20.165 0.122122
20.17 0.122122
20.175 0.122122
20.18 0.122122
20.185 0.122122
20.19 0.122122
20.195 0.122122
20.2 0.122123
20.205 0.122123
20.21 0.122123
20.215 0.122123
20.22 0.122123
20.225 0.122123
20.23 0.122123
20.235 0.122123
20.24 0.122123
20.245 0.122123
20.25 0.122123
20.255 0.122123
20.26 0.122123
20.265 0.122123
20.27 0.122123
20.275 0.122123
20.28 0.122123
20.285 0.122123
20.29 0.122123
20.295 0.122123
20.3 0.122123
20.305 0.122123
20.31 0.122123
20.315 0.122123
20.32 0.122123
20.325 0.122123
20.33 0.122123
20.335 0.122123
20.34 0.122123
20.345 0.122123
20.35 0.122123
20.355 0.122123
20.36 0.122123
20.365 0.122123
20.37 0.122123
20.375 0.122123
20.38 0.122123
20.385 0.122123
20.39 0.122123
20.395 0.122123
20.4 0.122123
20.405 0.122123
20.41 0.122123
20.415 0.122123
20.42 0.122123
20.425 0.122123
20.43 0.122123
20.435 0.122123
20.44 0.122123
20.445 0.122123
20.45 0.122123
20.455 0.122123
20.46 0.122123
20.465 0.122123
20.47 0.122123
20.475 0.122123
20.48 0.122123
20.485 0.122123
20.49 0.122123
20.495 0.122123
20.5 0.122123
20.505 0.122123
20.51 0.122123
20.515 0.122123
20.52 0.122123
20.525 0.122123
20.53 0.122123
20.535 0.122123
20.54 0.122123
20.545 0.122123
20.55 0.122123
20.555 0.122123
20.56 0.122123
20.565 0.122123
20.57 0.122123
20.575 0.122123
20.58 0.122123
20.585 0.122123
20.59 0.122123
20.595 0.122123
20.6 0.122123
20.605 0.122123
20.61 0.122123
20.615 0.122123
20.62 0.122123
20.625 0.122123
20.63 0.122123
20.635 0.122123
20.64 0.122123
20.645 0.122123
20.65 0.122123
20.655 0.122123
20.66 0.122123
20.665 0.122123
20.67 0.122123
20.675 0.122123
20.68 0.122123
20.685 0.122123
20.69 0.122123
20.695 0.122123
20.7 0.122123
20.705 0.122123
20.71 0.122123
20.715 0.122123
20.72 0.122123
20.725 0.122123
20.73 0.122123
20.735 0.122123
20.74 0.122123
20.745 0.122123
20.75 0.122123
20.755 0.122123
20.76 0.122123
20.765 0.122123
20.77 0.122123
20.775 0.122123
20.78 0.122123
20.785 0.122123
20.79 0.122123
20.795 0.122123
20.8 0.122123
20.805 0.122123
20.81 0.122123
20.815 0.122123
20.82 0.122123
20.825 0.122123
20.83 0.122123
20.835 0.122123
20.84 0.122123
20.845 0.122123
20.85 0.122123
20.855 0.122124
20.86 0.122124
20.865 0.122124
20.87 0.122124
20.875 0.122124
20.88 0.122124
20.885 0.122124
20.89 0.122124
20.895 0.122124
20.9 0.122124
20.905 0.122124
20.91 0.122124
20.915 0.122124
20.92 0.122124
20.925 0.122124
20.93 0.122124
20.935 0.122124
20.94 0.122124
20.945 0.122124
20.95 0.122124
20.955 0.122124
20.96 0.122124
20.965 0.122124
20.97 0.122124
20.975 0.122124
20.98 0.122124
20.985 0.122124
20.99 0.122124
20.995 0.122124
21 0.122124
21.005 0.122124
21.01 0.122124
21.015 0.122124
21.02 0.122124
21.025 0.122124
21.03 0.122124
21.035 0.122124
21.04 0.122124
21.045 0.122124
21.05 0.122124
21.055 0.122124
21.06 0.122124
21.065 0.122124
21.07 0.122124
21.075 0.122124
21.08 0.122124
21.085 0.122124
21.09 0.122124
21.095 0.122124
21.1 0.122124
21.105 0.122124
21.11 0.122124
21.115 0.122124
21.12 0.122124
21.125 0.122124
21.13 0.122124
21.135 0.122124
21.14 0.122124
21.145 0.122124
21.15 0.122124
21.155 0.122124
21.16 0.122124
21.165 0.122124
21.17 0.122124
21.175 0.122124
21.18 0.122124
21.185 0.122124
21.19 0.122124
21.195 0.122124
21.2 0.122124
21.205 0.122124
21.21 0.122124
21.215 0.122124
21.22 0.122124
21.225 0.122124
21.23 0.122124
21.235 0.122124
21.24 0.122124
21.245 0.122124
21.25 0.122124
21.255 0.122124
21.26 0.122124
21.265 0.122124
21.27 0.122124
21.275 0.122124
21.28 0.122124
21.285 0.122124
21.29 0.122124
21.295 0.122124
21.3 0.122124
21.305 0.122124
21.31 0.122124
21.315 0.122124
21.32 0.122124
21.325 0.122124
21.33 0.122124
21.335 0.122124
21.34 0.122124
21.345 0.122124
21.35 0.122124
21.355 0.122124
21.36 0.122124
21.365 0.122124
21.37 0.122124
21.375 0.122124
21.38 0.122124
21.385 0.122124
21.39 0.122124
21.395 0.122124
21.4 0.122124
21.405 0.122124
21.41 0.122124
21.415 0.122124
21.42 0.122124
21.425 0.122124
21.43 0.122124
21.435 0.122124
21.44 0.122124
21.445 0.122124
21.45 0.122124
21.455 0.122124
21.46 0.122124
21.465 0.122124
21.47 0.122124
21.475 0.122124
21.48 0.122124
21.485 0.122124
21.49 0.122125
21.495 0.122125
21.5 0.122125
21.505 0.122125
21.51 0.122125
21.515 0.122125
21.52 0.122125
21.525 0.122125
21.53 0.122125
21.535 0.122125
21.54 0.122125
21.545 0.122125
21.55 0.122125
21.555 0.122125
21.56 0.122125
21.565 0.122125
21.57 0.122125
21.575 0.122125
21.58 0.122125
21.585 0.122125
21.59 0.122125
21.595 0.122125
21.6 0.122125
21.605 0.122125
21.61 0.122125
21.615 0.122125
21.62 0.122125
21.625 0.122125
21.63 0.122125
21.635 0.122125
21.64 0.122125
21.645 0.122125
21.65 0.122125
21.655 0.122125
21.66 0.122125
21.665 0.122125
21.67 0.122125
21.675 0.122125
21.68 0.122125
21.685 0.122125
21.69 0.122125
21.695 0.122125
21.7 0.122125
21.705 0.122125
21.71 0.122125
21.715 0.122125
21.72 0.122125
21.725 0.122125
21.73 0.122125
21.735 0.122125
21.74 0.122125
21.745 0.122125
21.75 0.122125
21.755 0.122125
21.76 0.122125
21.765 0.122125
21.77 0.122125
21.775 0.122125
21.78 0.122125
21.785 0.122125
21.79 0.122125
21.795 0.122125
21.8 0.122125
21.805 0.122125
21.81 0.122125
21.815 0.122125
21.82 0.122125
21.825 0.122125
21.83 0.122125
21.835 0.122125
21.84 0.122125
21.845 0.122125
21.85 0.122125
21.855 0.122125
21.86 0.122125
21.865 0.122125
21.87 0.122125
21.875 0.122125
21.88 0.122125
21.885 0.122125
21.89 0.122125
21.895 0.122125
21.9 0.122125
21.905 0.122125
21.91 0.122125
21.915 0.122125
21.92 0.122125
21.925 0.122125
21.93 0.122125
21.935 0.122125
21.94 0.122125
21.945 0.122125
21.95 0.122125
21.955 0.122125
21.96 0.122125
21.965 0.122125
21.97 0.122125
21.975 0.122125
21.98 0.122125
21.985 0.122125
21.99 0.122125
21.995 0.122125
22 0.122125
22.005 0.122125
22.01 0.122125
22.015 0.122125
22.02 0.122125
22.025 0.122125
22.03 0.122125
22.035 0.122125
22.04 0.122125
22.045 0.122125
22.05 0.122125
22.055 0.122125
22.06 0.122125
22.065 0.122125
22.07 0.122125
22.075 0.122125
22.08 0.122125
22.085 0.122125
22.09 0.122125
22.095 0.122125
22.1 0.122125
22.105 0.122125
22.11 0.122126
22.115 0.122126
22.12 0.122126
22.125 0.122126
22.13 0.122126
22.135 0.122126
22.14 0.122126
22.145 0.122126
22.15 0.122126
22.155 0.122126
22.16 0.122126
22.165 0.122126
22.17 0.122126
22.175 0.122126
22.18 0.122126
22.185 0.122126
22.19 0.122126
22.195 0.122126
22.2 0.122126
22.205 0.122126
22.21 0.122126
22.215 0.122126
22.22 0.122126
22.225 0.122126
22.23 0.122126
22.235 0.122126
22.24 0.122126
22.245 0.122126
22.25 0.122126
22.255 0.122126
22.26 0.122126
22.265 0.122126
22.27 0.122126
22.275 0.122126
22.28 0.122126
22.285 0.122126
22.29 0.122126
22.295 0.122126
22.3 0.122126
22.305 0.122126
22.31 0.122126
22.315 0.122126
22.32 0.122126
22.325 0.122126
22.33 0.122126
22.335 0.122126
22.34 0.122126
22.345 0.122126
22.35 0.122126
22.355 0.122126
22.36 0.122126
22.365 0.122126
22.37 0.122126
22.375 0.122126
22.38 0.122126
22.385 0.122126
22.39 0.122126
22.395 0.122126
22.4 0.122126
22.405 0.122126
22.41 0.122126
22.415 0.122126
22.42 0.122126
22.425 0.122126
22.43 0.122126
22.435 0.122126
22.44 0.122126
22.445 0.122126
22.45 0.122126
22.455 0.122126
22.46 0.122126
22.465 0.122126
22.47 0.122126
22.475 0.122126
22.48 0.122126
22.485 0.122126
22.49 0.122126
22.495 0.122126
22.5 0.122126
22.505 0.122126
22.51 0.122126
22.515 0.122126
22.52 0.122126
22.525 0.122126
22.53 0.122126
22.535 0.122126
22.54 0.122126
22.545 0.122126
22.55 0.122126
22.555 0.122126
22.56 0.122126
22.565 0.122126
22.57 0.122126
22.575 0.122126
22.58 0.122126
22.585 0.122126
22.59 0.122126
22.595 0.122126
22.6 0.122126
22.605 0.122126
22.61 0.122126
22.615 0.122126
22.62 0.122126
22.625 0.122126
22.63 0.122126
22.635 0.122126
22.64 0.122126
22.645 0.122126
22.65 0.122126
22.655 0.122126
22.66 0.122126
22.665 0.122126
22.67 0.122126
22.675 0.122126
22.68 0.122126
22.685 0.122126
22.69 0.122126
22.695 0.122126
22.7 0.122126
22.705 0.122126
22.71 0.122126
22.715 0.122126
22.72 0.122126
22.725 0.122126
22.73 0.122126
22.735 0.122126
22.74 0.122126
22.745 0.122126
22.75 0.122126
22.755 0.122126
22.76 0.122126
22.765 0.122126
22.77 0.122126
22.775 0.122126
22.78 0.122126
22.785 0.122126
22.79 0.122126
22.795 0.122126
22.8 0.122126
22.805 0.122126
22.81 0.122126
22.815 0.122126
22.82 0.122126
22.825 0.122126
22.83 0.122126
22.835 0.122126
22.84 0.122126
22.845 0.122126
22.85 0.122126
22.855 0.122126
22.86 0.122126
22.865 0.122126
22.87 0.122126
22.875 0.122126
22.88 0.122126
22.885 0.122126
22.89 0.122126
22.895 0.122126
22.9 0.122126
22.905 0.122126
22.91 0.122126
22.915 0.122126
22.92 0.122126
22.925 0.122126
22.93 0.122126
22.935 0.122126
22.94 0.122126
22.945 0.122126
22.95 0.122126
22.955 0.122126
22.96 0.122126
22.965 0.122126
22.97 0.122126
22.975 0.122126
22.98 0.122126
22.985 0.122126
22.99 0.122126
22.995 0.122126
23 0.122126
23.005 0.122126
23.01 0.122126
23.015 0.122126
23.02 0.122126
23.025 0.122126
23.03 0.122126
23.035 0.122126
23.04 0.122126
23.045 0.122126
23.05 0.122126
23.055 0.122126
23.06 0.122126
23.065 0.122126
23.07 0.122126
23.075 0.122126
23.08 0.122126
23.085 0.122126
23.09 0.122126
23.095 0.122126
23.1 0.122126
23.105 0.122126
23.11 0.122126
23.115 0.122126
23.12 0.122126
23.125 0.122126
23.13 0.122126
23.135 0.122126
23.14 0.122126
23.145 0.122126
23.15 0.122126
23.155 0.122126
23.16 0.122126
23.165 0.122126
23.17 0.122126
23.175 0.122126
23.18 0.122126
23.185 0.122126
23.19 0.122127
23.195 0.122127
23.2 0.122127
23.205 0.122127
23.21 0.122127
23.215 0.122127
23.22 0.122127
23.225 0.122127
23.23 0.122127
23.235 0.122127
23.24 0.122127
23.245 0.122127
23.25 0.122127
23.255 0.122127
23.26 0.122127
23.265 0.122127
23.27 0.122127
23.275 0.122127
23.28 0.122127
23.285 0.122127
23.29 0.122127
23.295 0.122127
23.3 0.122127
23.305 0.122127
23.31 0.122127
23.315 0.122127
23.32 0.122127
23.325 0.122127
23.33 0.122127
23.335 0.122127
23.34 0.122127
23.345 0.122127
23.35 0.122127
23.355 0.122127
23.36 0.122127
23.365 0.122127
23.37 0.122127
23.375 0.122127
23.38 0.122127
23.385 0.122127
23.39 0.122127
23.395 0.122127
23.4 0.122127
23.405 0.122127
23.41 0.122127
23.415 0.122127
23.42 0.122127
23.425 0.122127
23.43 0.122127
23.435 0.122127
23.44 0.122127
23.445 0.122127
23.45 0.122127
23.455 0.122127
23.46 0.122127
23.465 0.122127
23.47 0.122127
23.475 0.122127
23.48 0.122127
23.485 0.122127
23.49 0.122127
23.495 0.122127
23.5 0.122127
23.505 0.122127
23.51 0.122127
23.515 0.122127
23.52 0.122127
23.525 0.122127
23.53 0.122127
23.535 0.122127
23.54 0.122127
23.545 0.122127
23.55 0.122127
23.555 0.122127
23.56 0.122127
23.565 0.122127
23.57 0.122127
23.575 0.122127
23.58 0.122127
23.585 0.122127
23.59 0.122127
23.595 0.122127
23.6 0.122127
23.605 0.122127
23.61 0.122127
23.615 0.122127
23.62 0.122127
23.625 0.122127
23.63 0.122127
23.635 0.122127
23.64 0.122127
23.645 0.122127
23.65 0.122127
23.655 0.122127
23.66 0.122127
23.665 0.122127
23.67 0.122127
23.675 0.122127
23.68 0.122127
23.685 0.122127
23.69 0.122127
23.695 0.122127
23.7 0.122127
23.705 0.122127
23.71 0.122127
23.715 0.122127
23.72 0.122127
23.725 0.122127
23.73 0.122127
23.735 0.122127
23.74 0.122127
23.745 0.122127
23.75 0.122127
23.755 0.122127
23.76 0.122127
23.765 0.122127
23.77 0.122127
23.775 0.122127
23.78 0.122127
23.785 0.122127
23.79 0.122127
23.795 0.122127
23.8 0.122127
23.805 0.122127
23.81 0.122127
23.815 0.122127
23.82 0.122127
23.825 0.122127
23.83 0.122127
23.835 0.122127
23.84 0.122127
23.845 0.122127
23.85 0.122127
23.855 0.122127
23.86 0.122127
23.865 0.122127
23.87 0.122127
23.875 0.122127
23.88 0.122127
23.885 0.122127
23.89 0.122127
23.895 0.122127
23.9 0.122127
23.905 0.122127
23.91 0.122127
23.915 0.122127
23.92 0.122127
23.925 0.122127
23.93 0.122127
23.935 0.122127
23.94 0.122127
23.945 0.122127
23.95 0.122127
23.955 0.122127
23.96 0.122127
23.965 0.122127
23.97 0.122127
23.975 0.122127
23.98 0.122127
23.985 0.122127
23.99 0.122127
23.995 0.122127
24 0.122127
24.005 0.122127
24.01 0.122127
24.015 0.122127
24.02 0.122127
24.025 0.122127
24.03 0.122127
24.035 0.122127
24.04 0.122127
24.045 0.122127
24.05 0.122127
24.055 0.122127
24.06 0.122127
24.065 0.122127
24.07 0.122127
24.075 0.122127
24.08 0.122127
24.085 0.122127
24.09 0.122127
24.095 0.122127
24.1 0.122127
24.105 0.122127
24.11 0.122127
24.115 0.122127
24.12 0.122127
24.125 0.122127
24.13 0.122127
24.135 0.122127
24.14 0.122127
24.145 0.122127
24.15 0.122127
24.155 0.122127
24.16 0.122127
24.165 0.122127
24.17 0.122127
24.175 0.122127
24.18 0.122127
24.185 0.122128
24.19 0.122128
24.195 0.122128
24.2 0.122128
24.205 0.122128
24.21 0.122128
24.215 0.122128
24.22 0.122128
24.225 0.122128
24.23 0.122128
24.235 0.122128
24.24 0.122128
24.245 0.122128
24.25 0.122128
24.255 0.122128
24.26 0.122128
24.265 0.122128
24.27 0.122128
24.275 0.122128
24.28 0.122128
24.285 0.122128
24.29 0.122128
24.295 0.122128
24.3 0.122128
24.305 0.122128
24.31 0.122128
24.315 0.122128
24.32 0.122128
24.325 0.122128
24.33 0.122128
24.335 0.122128
24.34 0.122128
24.345 0.122128
24.35 0.122128
24.355 0.122128
24.36 0.122128
24.365 0.122128
24.37 0.122128
24.375 0.122128
24.38 0.122128
24.385 0.122128
24.39 0.122128
24.395 0.122128
24.4 0.122128
24.405 0.122128
24.41 0.122128
24.415 0.122128
24.42 0.122128
24.425 0.122128
24.43 0.122128
24.435 0.122128
24.44 0.122128
24.445 0.122128
24.45 0.122128
24.455 0.122128
24.46 0.122128
24.465 0.122128
24.47 0.122128
24.475 0.122128
24.48 0.122128
24.485 0.122128
24.49 0.122128
24.495 0.122128
24.5 0.122128
24.505 0.122128
24.51 0.122128
24.515 0.122128
24.52 0.122128
24.525 0.122128
24.53 0.122128
24.535 0.122128
24.54 0.122128
24.545 0.122128
24.55 0.122128
24.555 0.122128
24.56 0.122128
24.565 0.122128
24.57 0.122128
24.575 0.122128
24.58 0.122128
24.585 0.122128
24.59 0.122128
24.595 0.122128
24.6 0.122128
24.605 0.122128
24.61 0.122128
24.615 0.122128
24.62 0.122128
24.625 0.122128
24.63 0.122128
24.635 0.122128
24.64 0.122128
24.645 0.122128
24.65 0.122128
24.655 0.122128
24.66 0.122128
24.665 0.122128
24.67 0.122128
24.675 0.122128
24.68 0.122128
24.685 0.122128
24.69 0.122128
24.695 0.122128
24.7 0.122128
24.705 0.122128
24.71 0.122128
24.715 0.122128
24.72 0.122128
24.725 0.122128
24.73 0.122128
24.735 0.122128
24.74 0.122128
24.745 0.122128
24.75 0.122128
24.755 0.122128
24.76 0.122128
24.765 0.122128
24.77 0.122128
24.775 0.122128
24.78 0.122128
24.785 0.122128
24.79 0.122128
24.795 0.122128
24.8 0.122128
24.805 0.122128
24.81 0.122128
24.815 0.122128
24.82 0.122128
24.825 0.122128
24.83 0.122128
24.835 0.122128
24.84 0.122128
24.845 0.122128
24.85 0.122128
24.855 0.122128
24.86 0.122128
24.865 0.122128
24.87 0.122128
24.875 0.122128
24.88 0.122128
24.885 0.122128
24.89 0.122128
24.895 0.122128
24.9 0.122128
24.905 0.122128
24.91 0.122128
24.915 0.122128
24.92 0.122128
24.925 0.122128
24.93 0.122128
24.935 0.122128
24.94 0.122128
24.945 0.122128
24.95 0.122128
24.955 0.122128
24.96 0.122128
24.965 0.122128
24.97 0.122128
24.975 0.122128
24.98 0.122128
24.985 0.122128
24.99 0.122128
24.995 0.122128
25 0.122128
25.005 0.122128
25.01 0.122128
25.015 0.122128
25.02 0.122128
25.025 0.122128
25.03 0.122128
25.035 0.122128
25.04 0.122128
25.045 0.122128
25.05 0.122128
25.055 0.122128
25.06 0.122128
25.065 0.122128
25.07 0.122128
25.075 0.122128
25.08 0.122128
25.085 0.122128
25.09 0.122128
25.095 0.122128
25.1 0.122128
25.105 0.122128
25.11 0.122128
25.115 0.122128
25.12 0.122128
25.125 0.122128
25.13 0.122128
25.135 0.122128
25.14 0.122128
25.145 0.122128
25.15 0.122128
25.155 0.122128
25.16 0.122128
25.165 0.122128
25.17 0.122128
25.175 0.122128
25.18 0.122128
25.185 0.122128
25.19 0.122128
25.195 0.122128
25.2 0.122128
25.205 0.122128
25.21 0.122128
25.215 0.122128
25.22 0.122128
25.225 0.122128
25.23 0.122128
25.235 0.122128
25.24 0.122128
25.245 0.122128
25.25 0.122128
25.255 0.122128
25.26 0.122128
25.265 0.122128
25.27 0.122128
25.275 0.122128
25.28 0.122128
25.285 0.122128
25.29 0.122128
25.295 0.122128
25.3 0.122128
25.305 0.122128
25.31 0.122128
25.315 0.122128
25.32 0.122128
25.325 0.122128
25.33 0.122128
25.335 0.122128
25.34 0.122128
25.345 0.122128
25.35 0.122128
25.355 0.122128
25.36 0.122128
25.365 0.122128
25.37 0.122128
25.375 0.122128
25.38 0.122128
25.385 0.122128
25.39 0.122128
25.395 0.122128
25.4 0.122128
25.405 0.122128
25.41 0.122128
25.415 0.122128
25.42 0.122128
25.425 0.122128
25.43 0.122128
25.435 0.122128
25.44 0.122128
25.445 0.122128
25.45 0.122128
25.455 0.122128
25.46 0.122128
25.465 0.122128
25.47 0.122128
25.475 0.122128
25.48 0.122128
25.485 0.122128
25.49 0.122128
25.495 0.122128
25.5 0.122128
25.505 0.122128
25.51 0.122128
25.515 0.122128
25.52 0.122128
25.525 0.122128
25.53 0.122128
25.535 0.122128
25.54 0.122128
25.545 0.122128
25.55 0.122128
25.555 0.122128
25.56 0.122128
25.565 0.122128
25.57 0.122128
25.575 0.122128
25.58 0.122128
25.585 0.122128
25.59 0.122128
25.595 0.122128
25.6 0.122128
25.605 0.122128
25.61 0.122128
25.615 0.122128
25.62 0.122128
25.625 0.122128
25.63 0.122128
25.635 0.122128
25.64 0.122128
25.645 0.122128
25.65 0.122128
25.655 0.122128
25.66 0.122128
25.665 0.122128
25.67 0.122128
25.675 0.122128
25.68 0.122128
25.685 0.122128
25.69 0.122128
25.695 0.122128
25.7 0.122128
25.705 0.122128
25.71 0.122128
25.715 0.122128
25.72 0.122128
25.725 0.122128
25.73 0.122128
25.735 0.122128
25.74 0.122128
25.745 0.122128
25.75 0.122128
25.755 0.122128
25.76 0.122128
25.765 0.122128
25.77 0.122128
25.775 0.122128
25.78 0.122128
25.785 0.122128
25.79 0.122128
25.795 0.122128
25.8 0.122128
25.805 0.122128
25.81 0.122128
25.815 0.122128
25.82 0.122128
25.825 0.122128
25.83 0.122128
25.835 0.122128
25.84 0.122128
25.845 0.122128
25.85 0.122128
25.855 0.122128
25.86 0.122128
25.865 0.122128
25.87 0.122128
25.875 0.122128
25.88 0.122128
25.885 0.122128
25.89 0.122128
25.895 0.122128
25.9 0.122128
25.905 0.122128
25.91 0.122128
25.915 0.122128
25.92 0.122128
25.925 0.122128
25.93 0.122128
25.935 0.122128
25.94 0.122128
25.945 0.122128
25.95 0.122128
25.955 0.122128
25.96 0.122128
25.965 0.122128
25.97 0.122128
25.975 0.122128
25.98 0.122128
25.985 0.122128
25.99 0.122128
25.995 0.122128
26 0.122128
26.005 0.122128
26.01 0.122128
26.015 0.122128
26.02 0.122128
26.025 0.122128
26.03 0.122128
26.035 0.122128
26.04 0.122128
26.045 0.122128
26.05 0.122128
26.055 0.122128
26.06 0.122128
26.065 0.122128
26.07 0.122128
26.075 0.122128
26.08 0.122128
26.085 0.122128
26.09 0.122128
26.095 0.122128
26.1 0.122128
26.105 0.122128
26.11 0.122129
26.115 0.122129
26.12 0.122129
26.125 0.122129
26.13 0.122129
26.135 0.122129
26.14 0.122129
26.145 0.122129
26.15 0.122129
26.155 0.122129
26.16 0.122129
26.165 0.122129
26.17 0.122129
26.175 0.122129
26.18 0.122129
26.185 0.122129
26.19 0.122129
26.195 0.122129
26.2 0.122129
26.205 0.122129
26.21 0.122129
26.215 0.122129
26.22 0.122129
26.225 0.122129
26.23 0.122129
26.235 0.122129
26.24 0.122129
26.245 0.122129
26.25 0.122129
26.255 0.122129
26.26 0.122129
26.265 0.122129
26.27 0.122129
26.275 0.122129
26.28 0.122129
26.285 0.122129
26.29 0.122129
26.295 0.122129
26.3 0.122129
26.305 0.122129
26.31 0.122129
26.315 0.122129
26.32 0.122129
26.325 0.122129
26.33 0.122129
26.335 0.122129
26.34 0.122129
26.345 0.122129
26.35 0.122129
26.355 0.122129
26.36 0.122129
26.365 0.122129
26.37 0.122129
26.375 0.122129
26.38 0.122129
26.385 0.122129
26.39 0.122129
26.395 0.122129
26.4 0.122129
26.405 0.122129
26.41 0.122129
26.415 0.122129
26.42 0.122129
26.425 0.122129
26.43 0.122129
26.435 0.122129
26.44 0.122129
26.445 0.122129
26.45 0.122129
26.455 0.122129
26.46 0.122129
26.465 0.122129
26.47 0.122129
26.475 0.122129
26.48 0.122129
26.485 0.122129
26.49 0.122129
26.495 0.122129
26.5 0.122129
26.505 0.122129
26.51 0.122129
26.515 0.122129
26.52 0.122129
26.525 0.122129
26.53 0.122129
26.535 0.122129
26.54 0.122129
26.545 0.122129
26.55 0.122129
26.555 0.122129
26.56 0.122129
26.565 0.122129
26.57 0.122129
26.575 0.122129
26.58 0.122129
26.585 0.122129
26.59 0.122129
26.595 0.122129
26.6 0.122129
26.605 0.122129
26.61 0.122129
26.615 0.122129
26.62 0.122129
26.625 0.122129
26.63 0.122129
26.635 0.122129
26.64 0.122129
26.645 0.122129
26.65 0.122129
26.655 0.122129
26.66 0.122129
26.665 0.122129
26.67 0.122129
26.675 0.122129
26.68 0.122129
26.685 0.122129
26.69 0.122129
26.695 0.122129
26.7 0.122129
26.705 0.122129
26.71 0.122129
26.715 0.122129
26.72 0.122129
26.725 0.122129
26.73 0.122129
26.735 0.122129
26.74 0.122129
26.745 0.122129
26.75 0.122129
26.755 0.122129
26.76 0.122129
26.765 0.122129
26.77 0.122129
26.775 0.122129
26.78 0.122129
26.785 0.122129
26.79 0.122129
26.795 0.122129
26.8 0.122129
26.805 0.122129
26.81 0.122129
26.815 0.122129
26.82 0.122129
26.825 0.122129
26.83 0.122129
26.835 0.122129
26.84 0.122129
26.845 0.122129
26.85 0.122129
26.855 0.122129
26.86 0.122129
26.865 0.122129
26.87 0.122129
26.875 0.122129
26.88 0.122129
26.885 0.122129
26.89 0.122129
26.895 0.122129
26.9 0.122129
26.905 0.122129
26.91 0.122129
26.915 0.122129
26.92 0.122129
26.925 0.122129
26.93 0.122129
26.935 0.122129
26.94 0.122129
26.945 0.122129
26.95 0.122129
26.955 0.122129
26.96 0.122129
26.965 0.122129
26.97 0.122129
26.975 0.122129
26.98 0.122129
26.985 0.122129
26.99 0.122129
26.995 0.122129
27 0.122129
27.005 0.122129
27.01 0.122129
27.015 0.122129
27.02 0.122129
27.025 0.122129
27.03 0.122129
27.035 0.122129
27.04 0.122129
27.045 0.122129
27.05 0.122129
27.055 0.122129
27.06 0.122129
27.065 0.122129
27.07 0.122129
27.075 0.122129
27.08 0.122129
27.085 0.122129
27.09 0.122129
27.095 0.122129
27.1 0.122129
27.105 0.122129
27.11 0.122129
27.115 0.122129
27.12 0.122129
27.125 0.122129
27.13 0.122129
27.135 0.122129
27.14 0.122129
27.145 0.122129
27.15 0.122129
27.155 0.122129
27.16 0.122129
27.165 0.122129
27.17 0.122129
27.175 0.122129
27.18 0.122129
27.185 0.122129
27.19 0.122129
27.195 0.122129
27.2 0.122129
27.205 0.122129
27.21 0.122129
27.215 0.122129
27.22 0.122129
27.225 0.122129
27.23 0.122129
27.235 0.122129
27.24 0.122129
27.245 0.122129
27.25 0.122129
27.255 0.122129
27.26 0.122129
27.265 0.122129
27.27 0.122129
27.275 0.122129
27.28 0.122129
27.285 0.122129
27.29 0.122129
27.295 0.122129
27.3 0.122129
27.305 0.122129
27.31 0.122129
27.315 0.122129
27.32 0.122129
27.325 0.122129
27.33 0.122129
27.335 0.122129
27.34 0.122129
27.345 0.122129
27.35 0.122129
27.355 0.122129
27.36 0.122129
27.365 0.122129
27.37 0.122129
27.375 0.122129
27.38 0.122129
27.385 0.122129
27.39 0.122129
27.395 0.122129
27.4 0.122129
27.405 0.122129
27.41 0.122129
27.415 0.122129
27.42 0.122129
27.425 0.122129
27.43 0.122129
27.435 0.122129
27.44 0.122129
27.445 0.122129
27.45 0.122129
27.455 0.122129
27.46 0.122129
27.465 0.122129
27.47 0.122129
27.475 0.122129
27.48 0.122129
27.485 0.122129
27.49 0.122129
27.495 0.122129
27.5 0.122129
27.505 0.122129
27.51 0.122129
27.515 0.122129
27.52 0.122129
27.525 0.122129
27.53 0.122129
27.535 0.122129
27.54 0.122129
27.545 0.122129
27.55 0.122129
27.555 0.122129
27.56 0.122129
27.565 0.122129
27.57 0.122129
27.575 0.122129
27.58 0.122129
27.585 0.122129
27.59 0.122129
27.595 0.122129
27.6 0.122129
27.605 0.122129
27.61 0.122129
27.615 0.122129
27.62 0.122129
27.625 0.122129
27.63 0.122129
27.635 0.122129
27.64 0.122129
27.645 0.122129
27.65 0.122129
27.655 0.122129
27.66 0.122129
27.665 0.122129
27.67 0.122129
27.675 0.122129
27.68 0.122129
27.685 0.122129
27.69 0.122129
27.695 0.122129
27.7 0.122129
27.705 0.122129
27.71 0.122129
27.715 0.122129
27.72 0.122129
27.725 0.122129
27.73 0.122129
27.735 0.122129
27.74 0.122129
27.745 0.122129
27.75 0.122129
27.755 0.122129
27.76 0.122129
27.765 0.122129
27.77 0.122129
27.775 0.122129
27.78 0.122129
27.785 0.122129
27.79 0.122129
27.795 0.122129
27.8 0.122129
27.805 0.122129
27.81 0.122129
27.815 0.122129
27.82 0.122129
27.825 0.122129
27.83 0.122129
27.835 0.122129
27.84 0.122129
27.845 0.122129
27.85 0.122129
27.855 0.122129
27.86 0.122129
27.865 0.122129
27.87 0.122129
27.875 0.122129
27.88 0.122129
27.885 0.122129
27.89 0.122129
27.895 0.122129
27.9 0.122129
27.905 0.122129
27.91 0.122129
27.915 0.122129
27.92 0.122129
27.925 0.122129
27.93 0.122129
27.935 0.122129
27.94 0.122129
27.945 0.122129
27.95 0.122129
27.955 0.122129
27.96 0.122129
27.965 0.122129
27.97 0.122129
27.975 0.122129
27.98 0.122129
27.985 0.122129
27.99 0.122129
27.995 0.122129
28 0.122129
28.005 0.122129
28.01 0.122129
28.015 0.122129
28.02 0.122129
28.025 0.122129
28.03 0.122129
28.035 0.122129
28.04 0.122129
28.045 0.122129
28.05 0.122129
28.055 0.122129
28.06 0.122129
28.065 0.122129
28.07 0.122129
28.075 0.122129
28.08 0.122129
28.085 0.122129
28.09 0.122129
28.095 0.122129
28.1 0.122129
28.105 0.122129
28.11 0.122129
28.115 0.122129
28.12 0.122129
28.125 0.122129
28.13 0.122129
28.135 0.122129
28.14 0.122129
28.145 0.122129
28.15 0.122129
28.155 0.122129
28.16 0.122129
28.165 0.122129
28.17 0.122129
28.175 0.122129
28.18 0.122129
28.185 0.122129
28.19 0.122129
28.195 0.122129
28.2 0.122129
28.205 0.122129
28.21 0.122129
28.215 0.122129
28.22 0.122129
28.225 0.122129
28.23 0.122129
28.235 0.122129
28.24 0.122129
28.245 0.122129
28.25 0.122129
28.255 0.122129
28.26 0.122129
28.265 0.122129
28.27 0.122129
28.275 0.122129
28.28 0.122129
28.285 0.122129
28.29 0.122129
28.295 0.122129
28.3 0.122129
28.305 0.122129
28.31 0.122129
28.315 0.122129
28.32 0.122129
28.325 0.122129
28.33 0.122129
28.335 0.122129
28.34 0.122129
28.345 0.122129
28.35 0.122129
28.355 0.122129
28.36 0.122129
28.365 0.122129
28.37 0.122129
28.375 0.122129
28.38 0.122129
28.385 0.122129
28.39 0.122129
28.395 0.122129
28.4 0.122129
28.405 0.122129
28.41 0.122129
28.415 0.122129
28.42 0.122129
28.425 0.122129
28.43 0.122129
28.435 0.122129
28.44 0.122129
28.445 0.122129
28.45 0.122129
28.455 0.122129
28.46 0.122129
28.465 0.122129
28.47 0.122129
28.475 0.122129
28.48 0.122129
28.485 0.122129
28.49 0.122129
28.495 0.122129
28.5 0.122129
28.505 0.122129
28.51 0.122129
28.515 0.122129
28.52 0.122129
28.525 0.122129
28.53 0.122129
28.535 0.122129
28.54 0.122129
28.545 0.122129
28.55 0.122129
28.555 0.122129
28.56 0.122129
28.565 0.122129
28.57 0.122129
28.575 0.122129
28.58 0.122129
28.585 0.122129
28.59 0.122129
28.595 0.122129
28.6 0.122129
28.605 0.122129
28.61 0.122129
28.615 0.122129
28.62 0.122129
28.625 0.122129
28.63 0.122129
28.635 0.122129
28.64 0.122129
28.645 0.122129
28.65 0.122129
28.655 0.122129
28.66 0.122129
28.665 0.122129
28.67 0.122129
28.675 0.122129
28.68 0.122129
28.685 0.122129
28.69 0.122129
28.695 0.122129
28.7 0.122129
28.705 0.122129
28.71 0.122129
28.715 0.122129
28.72 0.122129
28.725 0.122129
28.73 0.122129
28.735 0.122129
28.74 0.122129
28.745 0.122129
28.75 0.122129
28.755 0.122129
28.76 0.122129
28.765 0.122129
28.77 0.122129
28.775 0.122129
28.78 0.122129
28.785 0.122129
28.79 0.122129
28.795 0.122129
28.8 0.122129
28.805 0.122129
28.81 0.122129
28.815 0.122129
28.82 0.122129
28.825 0.122129
28.83 0.122129
28.835 0.122129
28.84 0.122129
28.845 0.122129
28.85 0.122129
28.855 0.122129
28.86 0.122129
28.865 0.122129
28.87 0.122129
28.875 0.122129
28.88 0.122129
28.885 0.122129
28.89 0.122129
28.895 0.122129
28.9 0.122129
28.905 0.122129
28.91 0.122129
28.915 0.122129
28.92 0.122129
28.925 0.122129
28.93 0.122129
28.935 0.122129
28.94 0.122129
28.945 0.122129
28.95 0.122129
28.955 0.122129
28.96 0.122129
28.965 0.122129
28.97 0.122129
28.975 0.122129
28.98 0.122129
28.985 0.122129
28.99 0.122129
28.995 0.122129
29 0.122129
29.005 0.122129
29.01 0.122129
29.015 0.122129
29.02 0.122129
29.025 0.122129
29.03 0.122129
29.035 0.122129
29.04 0.122129
29.045 0.122129
29.05 0.122129
29.055 0.122129
29.06 0.122129
29.065 0.122129
29.07 0.122129
29.075 0.122129
29.08 0.122129
29.085 0.122129
29.09 0.122129
29.095 0.122129
29.1 0.122129
29.105 0.122129
29.11 0.122129
29.115 0.122129
29.12 0.122129
29.125 0.122129
29.13 0.122129
29.135 0.122129
29.14 0.122129
29.145 0.122129
29.15 0.122129
29.155 0.122129
29.16 0.122129
29.165 0.122129
29.17 0.122129
29.175 0.122129
29.18 0.122129
29.185 0.122129
29.19 0.122129
29.195 0.122129
29.2 0.122129
29.205 0.122129
29.21 0.122129
29.215 0.122129
29.22 0.122129
29.225 0.122129
29.23 0.122129
29.235 0.122129
29.24 0.122129
29.245 0.122129
29.25 0.122129
29.255 0.122129
29.26 0.122129
29.265 0.122129
29.27 0.122129
29.275 0.122129
29.28 0.122129
29.285 0.122129
29.29 0.122129
29.295 0.122129
29.3 0.122129
29.305 0.122129
29.31 0.122129
29.315 0.122129
29.32 0.122129
29.325 0.122129
29.33 0.122129
29.335 0.122129
29.34 0.122129
29.345 0.122129
29.35 0.122129
29.355 0.122129
29.36 0.122129
29.365 0.122129
29.37 0.122129
29.375 0.122129
29.38 0.122129
29.385 0.122129
29.39 0.122129
29.395 0.122129
29.4 0.122129
29.405 0.122129
29.41 0.122129
29.415 0.122129
29.42 0.122129
29.425 0.122129
29.43 0.122129
29.435 0.122129
29.44 0.122129
29.445 0.122129
29.45 0.122129
29.455 0.122129
29.46 0.122129
29.465 0.122129
29.47 0.122129
29.475 0.122129
29.48 0.122129
29.485 0.122129
29.49 0.122129
29.495 0.122129
29.5 0.122129
29.505 0.122129
29.51 0.122129
29.515 0.122129
29.52 0.122129
29.525 0.122129
29.53 0.122129
29.535 0.122129
29.54 0.122129
29.545 0.122129
29.55 0.122129
29.555 0.122129
29.56 0.122129
29.565 0.122129
29.57 0.122129
29.575 0.122129
29.58 0.122129
29.585 0.122129
29.59 0.122129
29.595 0.122129
29.6 0.122129
29.605 0.122129
29.61 0.122129
29.615 0.122129
29.62 0.122129
29.625 0.122129
29.63 0.122129
29.635 0.122129
29.64 0.122129
29.645 0.122129
29.65 0.122129
29.655 0.122129
29.66 0.122129
29.665 0.122129
29.67 0.122129
29.675 0.122129
29.68 0.122129
29.685 0.122129
29.69 0.122129
29.695 0.122129
29.7 0.122129
29.705 0.122129
29.71 0.122129
29.715 0.122129
29.72 0.122129
29.725 0.122129
29.73 0.122129
29.735 0.122129
29.74 0.122129
29.745 0.122129
29.75 0.122129
29.755 0.122129
29.76 0.122129
29.765 0.122129
29.77 0.122129
29.775 0.122129
29.78 0.122129
29.785 0.122129
29.79 0.122129
29.795 0.122129
29.8 0.122129
29.805 0.122129
29.81 0.122129
29.815 0.122129
29.82 0.122129
29.825 0.122129
29.83 0.122129
29.835 0.122129
29.84 0.122129
29.845 0.122129
29.85 0.122129
29.855 0.122129
29.86 0.122129
29.865 0.122129
29.87 0.122129
29.875 0.122129
29.88 0.122129
29.885 0.122129
29.89 0.122129
29.895 0.122129
29.9 0.122129
29.905 0.122129
29.91 0.122129
29.915 0.122129
29.92 0.122129
29.925 0.122129
29.93 0.122129
29.935 0.122129
29.94 0.122129
29.945 0.122129
29.95 0.122129
29.955 0.122129
29.96 0.122129
29.965 0.122129
29.97 0.122129
29.975 0.122129
29.98 0.122129
29.985 0.122129
29.99 0.122129
29.995 0.122129
30 0.122129
30.005 0.122129
30.01 0.122129
30.015 0.122129
30.02 0.122129
30.025 0.122129
30.03 0.122129
30.035 0.122129
30.04 0.122129
30.045 0.122129
30.05 0.122129
30.055 0.122129
30.06 0.122129
30.065 0.122129
30.07 0.122129
30.075 0.122129
30.08 0.122129
30.085 0.122129
30.09 0.122129
30.095 0.122129
30.1 0.122129
30.105 0.122129
30.11 0.122129
30.115 0.122129
30.12 0.122129
30.125 0.122129
30.13 0.122129
30.135 0.122129
30.14 0.122129
30.145 0.122129
30.15 0.122129
30.155 0.122129
30.16 0.122129
30.165 0.122129
30.17 0.122129
30.175 0.122129
30.18 0.122129
30.185 0.122129
30.19 0.122129
30.195 0.122129
30.2 0.122129
30.205 0.122129
30.21 0.122129
30.215 0.122129
30.22 0.122129
30.225 0.122129
30.23 0.122129
30.235 0.122129
30.24 0.122129
30.245 0.122129
30.25 0.122129
30.255 0.122129
30.26 0.122129
30.265 0.122129
30.27 0.122129
30.275 0.122129
30.28 0.122129
30.285 0.122129
30.29 0.122129
30.295 0.122129
30.3 0.122129
30.305 0.122129
30.31 0.122129
30.315 0.122129
30.32 0.122129
30.325 0.122129
30.33 0.122129
30.335 0.122129
30.34 0.122129
30.345 0.122129
30.35 0.122129
30.355 0.122129
30.36 0.122129
30.365 0.122129
30.37 0.122129
30.375 0.122129
30.38 0.122129
30.385 0.122129
30.39 0.122129
30.395 0.122129
30.4 0.122129
30.405 0.122129
30.41 0.122129
30.415 0.122129
30.42 0.122129
30.425 0.122129
30.43 0.122129
30.435 0.122129
30.44 0.122129
30.445 0.122129
30.45 0.122129
30.455 0.122129
30.46 0.122129
30.465 0.122129
30.47 0.122129
30.475 0.122129
30.48 0.122129
30.485 0.122129
30.49 0.122129
30.495 0.122129
30.5 0.122129
30.505 0.122129
30.51 0.122129
30.515 0.122129
30.52 0.122129
30.525 0.122129
30.53 0.122129
30.535 0.122129
30.54 0.122129
30.545 0.122129
30.55 0.122129
30.555 0.122129
30.56 0.122129
30.565 0.122129
30.57 0.122129
30.575 0.122129
30.58 0.122129
30.585 0.122129
30.59 0.122129
30.595 0.122129
30.6 0.122129
30.605 0.122129
30.61 0.122129
30.615 0.122129
30.62 0.122129
30.625 0.122129
30.63 0.122129
30.635 0.122129
30.64 0.122129
30.645 0.122129
30.65 0.122129
30.655 0.122129
30.66 0.122129
30.665 0.122129
30.67 0.122129
30.675 0.122129
30.68 0.122129
30.685 0.122129
30.69 0.122129
30.695 0.122129
30.7 0.122129
30.705 0.122129
30.71 0.122129
30.715 0.122129
30.72 0.122129
30.725 0.122129
30.73 0.122129
30.735 0.122129
30.74 0.122129
30.745 0.122129
30.75 0.122129
30.755 0.122129
30.76 0.122129
30.765 0.122129
30.77 0.122129
30.775 0.122129
30.78 0.122129
30.785 0.122129
30.79 0.122129
30.795 0.122129
30.8 0.122129
30.805 0.122129
30.81 0.122129
30.815 0.122129
30.82 0.122129
30.825 0.122129
30.83 0.122129
30.835 0.122129
30.84 0.122129
30.845 0.122129
30.85 0.122129
30.855 0.122129
30.86 0.122129
30.865 0.122129
30.87 0.122129
30.875 0.122129
30.88 0.122129
30.885 0.122129
30.89 0.122129
30.895 0.122129
30.9 0.122129
30.905 0.122129
30.91 0.122129
30.915 0.122129
30.92 0.122129
30.925 0.122129
30.93 0.122129
30.935 0.122129
30.94 0.122129
30.945 0.122129
30.95 0.122129
30.955 0.122129
30.96 0.122129
30.965 0.122129
30.97 0.122129
30.975 0.122129
30.98 0.122129
30.985 0.122129
30.99 0.122129
30.995 0.122129
31 0.122129
31.005 0.122129
31.01 0.122129
31.015 0.122129
31.02 0.122129
31.025 0.122129
31.03 0.12213
31.035 0.12213
31.04 0.12213
31.045 0.12213
31.05 0.12213
31.055 0.12213
31.06 0.12213
31.065 0.12213
31.07 0.12213
31.075 0.12213
31.08 0.12213
31.085 0.12213
31.09 0.12213
31.095 0.12213
31.1 0.12213
31.105 0.12213
31.11 0.12213
31.115 0.12213
31.12 0.12213
31.125 0.12213
31.13 0.12213
31.135 0.12213
31.14 0.12213
31.145 0.12213
31.15 0.12213
31.155 0.12213
31.16 0.12213
31.165 0.12213
31.17 0.12213
31.175 0.12213
31.18 0.12213
31.185 0.12213
31.19 0.12213
31.195 0.12213
31.2 0.12213
31.205 0.12213
31.21 0.12213
31.215 0.12213
31.22 0.12213
31.225 0.12213
31.23 0.12213
31.235 0.12213
31.24 0.12213
31.245 0.12213
31.25 0.12213
31.255 0.12213
31.26 0.12213
31.265 0.12213
31.27 0.12213
31.275 0.12213
31.28 0.12213
31.285 0.12213
31.29 0.12213
31.295 0.12213
31.3 0.12213
31.305 0.12213
31.31 0.12213
31.315 0.12213
31.32 0.12213
31.325 0.12213
31.33 0.12213
31.335 0.12213
31.34 0.12213
31.345 0.12213
31.35 0.12213
31.355 0.12213
31.36 0.12213
31.365 0.12213
31.37 0.12213
31.375 0.12213
31.38 0.12213
31.385 0.12213
31.39 0.12213
31.395 0.12213
31.4 0.12213
31.405 0.12213
31.41 0.12213
31.415 0.12213
31.42 0.12213
31.425 0.12213
31.43 0.12213
31.435 0.12213
31.44 0.12213
31.445 0.12213
31.45 0.12213
31.455 0.12213
31.46 0.12213
31.465 0.12213
31.47 0.12213
31.475 0.12213
31.48 0.12213
31.485 0.12213
31.49 0.12213
31.495 0.12213
31.5 0.12213
31.505 0.12213
31.51 0.12213
31.515 0.12213
31.52 0.12213
31.525 0.12213
31.53 0.12213
31.535 0.12213
31.54 0.12213
31.545 0.12213
31.55 0.12213
31.555 0.12213
31.56 0.12213
31.565 0.12213
31.57 0.12213
31.575 0.12213
31.58 0.12213
31.585 0.12213
31.59 0.12213
31.595 0.12213
31.6 0.12213
31.605 0.12213
31.61 0.12213
31.615 0.12213
31.62 0.12213
31.625 0.12213
31.63 0.12213
31.635 0.12213
31.64 0.12213
31.645 0.12213
31.65 0.12213
31.655 0.12213
31.66 0.12213
31.665 0.12213
31.67 0.12213
31.675 0.12213
31.68 0.12213
31.685 0.12213
31.69 0.12213
31.695 0.12213
31.7 0.12213
31.705 0.12213
31.71 0.12213
31.715 0.12213
31.72 0.12213
31.725 0.12213
31.73 0.12213
31.735 0.12213
31.74 0.12213
31.745 0.12213
31.75 0.12213
31.755 0.12213
31.76 0.12213
31.765 0.12213
31.77 0.12213
31.775 0.12213
31.78 0.12213
31.785 0.12213
31.79 0.12213
31.795 0.12213
31.8 0.12213
31.805 0.12213
31.81 0.12213
31.815 0.12213
31.82 0.12213
31.825 0.12213
31.83 0.12213
31.835 0.12213
31.84 0.12213
31.845 0.12213
31.85 0.12213
31.855 0.12213
31.86 0.12213
31.865 0.12213
31.87 0.12213
31.875 0.12213
31.88 0.12213
31.885 0.12213
31.89 0.12213
31.895 0.12213
31.9 0.12213
31.905 0.12213
31.91 0.12213
31.915 0.12213
31.92 0.12213
31.925 0.12213
31.93 0.12213
31.935 0.12213
31.94 0.12213
31.945 0.12213
31.95 0.12213
31.955 0.12213
31.96 0.12213
31.965 0.12213
31.97 0.12213
31.975 0.12213
31.98 0.12213
31.985 0.12213
31.99 0.12213
31.995 0.12213
32 0.12213
32.005 0.12213
32.01 0.12213
32.015 0.12213
32.02 0.12213
32.025 0.12213
32.03 0.12213
32.035 0.12213
32.04 0.12213
32.045 0.12213
32.05 0.12213
32.055 0.12213
32.06 0.12213
32.065 0.12213
32.07 0.12213
32.075 0.12213
32.08 0.12213
32.085 0.12213
32.09 0.12213
32.095 0.12213
32.1 0.12213
32.105 0.12213
32.11 0.12213
32.115 0.12213
32.12 0.12213
32.125 0.12213
32.13 0.12213
32.135 0.12213
32.14 0.12213
32.145 0.12213
32.15 0.12213
32.155 0.12213
32.16 0.12213
32.165 0.12213
32.17 0.12213
32.175 0.12213
32.18 0.12213
32.185 0.12213
32.19 0.12213
32.195 0.12213
32.2 0.12213
32.205 0.12213
32.21 0.12213
32.215 0.12213
32.22 0.12213
32.225 0.12213
32.23 0.12213
32.235 0.12213
32.24 0.12213
32.245 0.12213
32.25 0.12213
32.255 0.12213
32.26 0.12213
32.265 0.12213
32.27 0.12213
32.275 0.12213
32.28 0.12213
32.285 0.12213
32.29 0.12213
32.295 0.12213
32.3 0.12213
32.305 0.12213
32.31 0.12213
32.315 0.12213
32.32 0.12213
32.325 0.12213
32.33 0.12213
32.335 0.12213
32.34 0.12213
32.345 0.12213
32.35 0.12213
32.355 0.12213
32.36 0.12213
32.365 0.12213
32.37 0.12213
32.375 0.12213
32.38 0.12213
32.385 0.12213
32.39 0.12213
32.395 0.12213
32.4 0.12213
32.405 0.12213
32.41 0.12213
32.415 0.12213
32.42 0.12213
32.425 0.12213
32.43 0.12213
32.435 0.12213
32.44 0.12213
32.445 0.12213
32.45 0.12213
32.455 0.12213
32.46 0.12213
32.465 0.12213
32.47 0.12213
32.475 0.12213
32.48 0.12213
32.485 0.12213
32.49 0.12213
32.495 0.12213
32.5 0.12213
32.505 0.12213
32.51 0.12213
32.515 0.12213
32.52 0.12213
32.525 0.12213
32.53 0.12213
32.535 0.12213
32.54 0.12213
32.545 0.12213
32.55 0.12213
32.555 0.12213
32.56 0.12213
32.565 0.12213
32.57 0.12213
32.575 0.12213
32.58 0.12213
32.585 0.12213
32.59 0.12213
32.595 0.12213
32.6 0.12213
32.605 0.12213
32.61 0.12213
32.615 0.12213
32.62 0.12213
32.625 0.12213
32.63 0.12213
32.635 0.12213
32.64 0.12213
32.645 0.12213
32.65 0.12213
32.655 0.12213
32.66 0.12213
32.665 0.12213
32.67 0.12213
32.675 0.12213
32.68 0.12213
32.685 0.12213
32.69 0.12213
32.695 0.12213
32.7 0.12213
32.705 0.12213
32.71 0.12213
32.715 0.12213
32.72 0.12213
32.725 0.12213
32.73 0.12213
32.735 0.12213
32.74 0.12213
32.745 0.12213
32.75 0.12213
32.755 0.12213
32.76 0.12213
32.765 0.12213
32.77 0.12213
32.775 0.12213
32.78 0.12213
32.785 0.12213
32.79 0.12213
32.795 0.12213
32.8 0.12213
32.805 0.12213
32.81 0.12213
32.815 0.12213
32.82 0.12213
32.825 0.12213
32.83 0.12213
32.835 0.12213
32.84 0.12213
32.845 0.12213
32.85 0.12213
32.855 0.12213
32.86 0.12213
32.865 0.12213
32.87 0.12213
32.875 0.12213
32.88 0.12213
32.885 0.12213
32.89 0.12213
32.895 0.12213
32.9 0.12213
32.905 0.12213
32.91 0.12213
32.915 0.12213
32.92 0.12213
32.925 0.12213
32.93 0.12213
32.935 0.12213
32.94 0.12213
32.945 0.12213
32.95 0.12213
32.955 0.12213
32.96 0.12213
32.965 0.12213
32.97 0.12213
32.975 0.12213
32.98 0.12213
32.985 0.12213
32.99 0.12213
32.995 0.12213
33 0.12213
33.005 0.12213
33.01 0.12213
33.015 0.12213
33.02 0.12213
33.025 0.12213
33.03 0.12213
33.035 0.12213
33.04 0.12213
33.045 0.12213
33.05 0.12213
33.055 0.12213
33.06 0.12213
33.065 0.12213
33.07 0.12213
33.075 0.12213
33.08 0.12213
33.085 0.12213
33.09 0.12213
33.095 0.12213
33.1 0.12213
33.105 0.12213
33.11 0.12213
33.115 0.12213
33.12 0.12213
33.125 0.12213
33.13 0.12213
33.135 0.12213
33.14 0.12213
33.145 0.12213
33.15 0.12213
33.155 0.12213
33.16 0.12213
33.165 0.12213
33.17 0.12213
33.175 0.12213
33.18 0.12213
33.185 0.12213
33.19 0.12213
33.195 0.12213
33.2 0.12213
33.205 0.12213
33.21 0.12213
33.215 0.12213
33.22 0.12213
33.225 0.12213
33.23 0.12213
33.235 0.12213
33.24 0.12213
33.245 0.12213
33.25 0.12213
33.255 0.12213
33.26 0.12213
33.265 0.12213
33.27 0.12213
33.275 0.12213
33.28 0.12213
33.285 0.12213
33.29 0.12213
33.295 0.12213
33.3 0.12213
33.305 0.12213
33.31 0.12213
33.315 0.12213
33.32 0.12213
33.325 0.12213
33.33 0.12213
33.335 0.12213
33.34 0.12213
33.345 0.12213
33.35 0.12213
33.355 0.12213
33.36 0.12213
33.365 0.12213
33.37 0.12213
33.375 0.12213
33.38 0.12213
33.385 0.12213
33.39 0.12213
33.395 0.12213
33.4 0.12213
33.405 0.12213
33.41 0.12213
33.415 0.12213
33.42 0.12213
33.425 0.12213
33.43 0.12213
33.435 0.12213
33.44 0.12213
33.445 0.12213
33.45 0.12213
33.455 0.12213
33.46 0.12213
33.465 0.12213
33.47 0.12213
33.475 0.12213
33.48 0.12213
33.485 0.12213
33.49 0.12213
33.495 0.12213
33.5 0.12213
33.505 0.12213
33.51 0.12213
33.515 0.12213
33.52 0.12213
33.525 0.12213
33.53 0.12213
33.535 0.12213
33.54 0.12213
33.545 0.12213
33.55 0.12213
33.555 0.12213
33.56 0.12213
33.565 0.12213
33.57 0.12213
33.575 0.12213
33.58 0.12213
33.585 0.12213
33.59 0.12213
33.595 0.12213
33.6 0.12213
33.605 0.12213
33.61 0.12213
33.615 0.12213
33.62 0.12213
33.625 0.12213
33.63 0.12213
33.635 0.12213
33.64 0.12213
33.645 0.12213
33.65 0.12213
33.655 0.12213
33.66 0.12213
33.665 0.12213
33.67 0.12213
33.675 0.12213
33.68 0.12213
33.685 0.12213
33.69 0.12213
33.695 0.12213
33.7 0.12213
33.705 0.12213
33.71 0.12213
33.715 0.12213
33.72 0.12213
33.725 0.12213
33.73 0.12213
33.735 0.12213
33.74 0.12213
33.745 0.12213
33.75 0.12213
33.755 0.12213
33.76 0.12213
33.765 0.12213
33.77 0.12213
33.775 0.12213
33.78 0.12213
33.785 0.12213
33.79 0.12213
33.795 0.12213
33.8 0.12213
33.805 0.12213
33.81 0.12213
33.815 0.12213
33.82 0.12213
33.825 0.12213
33.83 0.12213
33.835 0.12213
33.84 0.12213
33.845 0.12213
33.85 0.12213
33.855 0.12213
33.86 0.12213
33.865 0.12213
33.87 0.12213
33.875 0.12213
33.88 0.12213
33.885 0.12213
33.89 0.12213
33.895 0.12213
33.9 0.12213
33.905 0.12213
33.91 0.12213
33.915 0.12213
33.92 0.12213
33.925 0.12213
33.93 0.12213
33.935 0.12213
33.94 0.12213
33.945 0.12213
33.95 0.12213
33.955 0.12213
33.96 0.12213
33.965 0.12213
33.97 0.12213
33.975 0.12213
33.98 0.12213
33.985 0.12213
33.99 0.12213
33.995 0.12213
34 0.12213
34.005 0.12213
34.01 0.12213
34.015 0.12213
34.02 0.12213
34.025 0.12213
34.03 0.12213
34.035 0.12213
34.04 0.12213
34.045 0.12213
34.05 0.12213
34.055 0.12213
34.06 0.12213
34.065 0.12213
34.07 0.12213
34.075 0.12213
34.08 0.12213
34.085 0.12213
34.09 0.12213
34.095 0.12213
34.1 0.12213
34.105 0.12213
34.11 0.12213
34.115 0.12213
34.12 0.12213
34.125 0.12213
34.13 0.12213
34.135 0.12213
34.14 0.12213
34.145 0.12213
34.15 0.12213
34.155 0.12213
34.16 0.12213
34.165 0.12213
34.17 0.12213
34.175 0.12213
34.18 0.12213
34.185 0.12213
34.19 0.12213
34.195 0.12213
34.2 0.12213
34.205 0.12213
34.21 0.12213
34.215 0.12213
34.22 0.12213
34.225 0.12213
34.23 0.12213
34.235 0.12213
34.24 0.12213
34.245 0.12213
34.25 0.12213
34.255 0.12213
34.26 0.12213
34.265 0.12213
34.27 0.12213
34.275 0.12213
34.28 0.12213
34.285 0.12213
34.29 0.12213
34.295 0.12213
34.3 0.12213
34.305 0.12213
34.31 0.12213
34.315 0.12213
34.32 0.12213
34.325 0.12213
34.33 0.12213
34.335 0.12213
34.34 0.12213
34.345 0.12213
34.35 0.12213
34.355 0.12213
34.36 0.12213
34.365 0.12213
34.37 0.12213
34.375 0.12213
34.38 0.12213
34.385 0.12213
34.39 0.12213
34.395 0.12213
34.4 0.12213
34.405 0.12213
34.41 0.12213
34.415 0.12213
34.42 0.12213
34.425 0.12213
34.43 0.12213
34.435 0.12213
34.44 0.12213
34.445 0.12213
34.45 0.12213
34.455 0.12213
34.46 0.12213
34.465 0.12213
34.47 0.12213
34.475 0.12213
34.48 0.12213
34.485 0.12213
34.49 0.12213
34.495 0.12213
34.5 0.12213
34.505 0.12213
34.51 0.12213
34.515 0.12213
34.52 0.12213
34.525 0.12213
34.53 0.12213
34.535 0.12213
34.54 0.12213
34.545 0.12213
34.55 0.12213
34.555 0.12213
34.56 0.12213
34.565 0.12213
34.57 0.12213
34.575 0.12213
34.58 0.12213
34.585 0.12213
34.59 0.12213
34.595 0.12213
34.6 0.12213
34.605 0.12213
34.61 0.12213
34.615 0.12213
34.62 0.12213
34.625 0.12213
34.63 0.12213
34.635 0.12213
34.64 0.12213
34.645 0.12213
34.65 0.12213
34.655 0.12213
34.66 0.12213
34.665 0.12213
34.67 0.12213
34.675 0.12213
34.68 0.12213
34.685 0.12213
34.69 0.12213
34.695 0.12213
34.7 0.12213
34.705 0.12213
34.71 0.12213
34.715 0.12213
34.72 0.12213
34.725 0.12213
34.73 0.12213
34.735 0.12213
34.74 0.12213
34.745 0.12213
34.75 0.12213
34.755 0.12213
34.76 0.12213
34.765 0.12213
34.77 0.12213
34.775 0.12213
34.78 0.12213
34.785 0.12213
34.79 0.12213
34.795 0.12213
34.8 0.12213
34.805 0.12213
34.81 0.12213
34.815 0.12213
34.82 0.12213
34.825 0.12213
34.83 0.12213
34.835 0.12213
34.84 0.12213
34.845 0.12213
34.85 0.12213
34.855 0.12213
34.86 0.12213
34.865 0.12213
34.87 0.12213
34.875 0.12213
34.88 0.12213
34.885 0.12213
34.89 0.12213
34.895 0.12213
34.9 0.12213
34.905 0.12213
34.91 0.12213
34.915 0.12213
34.92 0.12213
34.925 0.12213
34.93 0.12213
34.935 0.12213
34.94 0.12213
34.945 0.12213
34.95 0.12213
34.955 0.12213
34.96 0.12213
34.965 0.12213
34.97 0.12213
34.975 0.12213
34.98 0.12213
34.985 0.12213
34.99 0.12213
34.995 0.12213
35 0.12213
35.005 0.12213
35.01 0.12213
35.015 0.12213
35.02 0.12213
35.025 0.12213
35.03 0.12213
35.035 0.12213
35.04 0.12213
35.045 0.12213
35.05 0.12213
35.055 0.12213
35.06 0.12213
35.065 0.12213
35.07 0.12213
35.075 0.12213
35.08 0.12213
35.085 0.12213
35.09 0.12213
35.095 0.12213
35.1 0.12213
35.105 0.12213
35.11 0.12213
35.115 0.12213
35.12 0.12213
35.125 0.12213
35.13 0.12213
35.135 0.12213
35.14 0.12213
35.145 0.12213
35.15 0.12213
35.155 0.12213
35.16 0.12213
35.165 0.12213
35.17 0.12213
35.175 0.12213
35.18 0.12213
35.185 0.12213
35.19 0.12213
35.195 0.12213
35.2 0.12213
35.205 0.12213
35.21 0.12213
35.215 0.12213
35.22 0.12213
35.225 0.12213
35.23 0.12213
35.235 0.12213
35.24 0.12213
35.245 0.12213
35.25 0.12213
35.255 0.12213
35.26 0.12213
35.265 0.12213
35.27 0.12213
35.275 0.12213
35.28 0.12213
35.285 0.12213
35.29 0.12213
35.295 0.12213
35.3 0.12213
35.305 0.12213
35.31 0.12213
35.315 0.12213
35.32 0.12213
35.325 0.12213
35.33 0.12213
35.335 0.12213
35.34 0.12213
35.345 0.12213
35.35 0.12213
35.355 0.12213
35.36 0.12213
35.365 0.12213
35.37 0.12213
35.375 0.12213
35.38 0.12213
35.385 0.12213
35.39 0.12213
35.395 0.12213
35.4 0.12213
35.405 0.12213
35.41 0.12213
35.415 0.12213
35.42 0.12213
35.425 0.12213
35.43 0.12213
35.435 0.12213
35.44 0.12213
35.445 0.12213
35.45 0.12213
35.455 0.12213
35.46 0.12213
35.465 0.12213
35.47 0.12213
35.475 0.12213
35.48 0.12213
35.485 0.12213
35.49 0.12213
35.495 0.12213
35.5 0.12213
35.505 0.12213
35.51 0.12213
35.515 0.12213
35.52 0.12213
35.525 0.12213
35.53 0.12213
35.535 0.12213
35.54 0.12213
35.545 0.12213
35.55 0.12213
35.555 0.12213
35.56 0.12213
35.565 0.12213
35.57 0.12213
35.575 0.12213
35.58 0.12213
35.585 0.12213
35.59 0.12213
35.595 0.12213
35.6 0.12213
35.605 0.12213
35.61 0.12213
35.615 0.12213
35.62 0.12213
35.625 0.12213
35.63 0.12213
35.635 0.12213
35.64 0.12213
35.645 0.12213
35.65 0.12213
35.655 0.12213
35.66 0.12213
35.665 0.12213
35.67 0.12213
35.675 0.12213
35.68 0.12213
35.685 0.12213
35.69 0.12213
35.695 0.12213
35.7 0.12213
35.705 0.12213
35.71 0.12213
35.715 0.12213
35.72 0.12213
35.725 0.12213
35.73 0.12213
35.735 0.12213
35.74 0.12213
35.745 0.12213
35.75 0.12213
35.755 0.12213
35.76 0.12213
35.765 0.12213
35.77 0.12213
35.775 0.12213
35.78 0.12213
35.785 0.12213
35.79 0.12213
35.795 0.12213
35.8 0.12213
35.805 0.12213
35.81 0.12213
35.815 0.12213
35.82 0.12213
35.825 0.12213
35.83 0.12213
35.835 0.12213
35.84 0.12213
35.845 0.12213
35.85 0.12213
35.855 0.12213
35.86 0.12213
35.865 0.12213
35.87 0.12213
35.875 0.12213
35.88 0.12213
35.885 0.12213
35.89 0.12213
35.895 0.12213
35.9 0.12213
35.905 0.12213
35.91 0.12213
35.915 0.12213
35.92 0.12213
35.925 0.12213
35.93 0.12213
35.935 0.12213
35.94 0.12213
35.945 0.12213
35.95 0.12213
35.955 0.12213
35.96 0.12213
35.965 0.12213
35.97 0.12213
35.975 0.12213
35.98 0.12213
35.985 0.12213
35.99 0.12213
35.995 0.12213
36 0.12213
36.005 0.12213
36.01 0.12213
36.015 0.12213
36.02 0.12213
36.025 0.12213
36.03 0.12213
36.035 0.12213
36.04 0.12213
36.045 0.12213
36.05 0.12213
36.055 0.12213
36.06 0.12213
36.065 0.12213
36.07 0.12213
36.075 0.12213
36.08 0.12213
36.085 0.12213
36.09 0.12213
36.095 0.12213
36.1 0.12213
36.105 0.12213
36.11 0.12213
36.115 0.12213
36.12 0.12213
36.125 0.12213
36.13 0.12213
36.135 0.12213
36.14 0.12213
36.145 0.12213
36.15 0.12213
36.155 0.12213
36.16 0.12213
36.165 0.12213
36.17 0.12213
36.175 0.12213
36.18 0.12213
36.185 0.12213
36.19 0.12213
36.195 0.12213
36.2 0.12213
36.205 0.12213
36.21 0.12213
36.215 0.12213
36.22 0.12213
36.225 0.12213
36.23 0.12213
36.235 0.12213
36.24 0.12213
36.245 0.12213
36.25 0.12213
36.255 0.12213
36.26 0.12213
36.265 0.12213
36.27 0.12213
36.275 0.12213
36.28 0.12213
36.285 0.12213
36.29 0.12213
36.295 0.12213
36.3 0.12213
36.305 0.12213
36.31 0.12213
36.315 0.12213
36.32 0.12213
36.325 0.12213
36.33 0.12213
36.335 0.12213
36.34 0.12213
36.345 0.12213
36.35 0.12213
36.355 0.12213
36.36 0.12213
36.365 0.12213
36.37 0.12213
36.375 0.12213
36.38 0.12213
36.385 0.12213
36.39 0.12213
36.395 0.12213
36.4 0.12213
36.405 0.12213
36.41 0.12213
36.415 0.12213
36.42 0.12213
36.425 0.12213
36.43 0.12213
36.435 0.12213
36.44 0.12213
36.445 0.12213
36.45 0.12213
36.455 0.12213
36.46 0.12213
36.465 0.12213
36.47 0.12213
36.475 0.12213
36.48 0.12213
36.485 0.12213
36.49 0.12213
36.495 0.12213
36.5 0.12213
36.505 0.12213
36.51 0.12213
36.515 0.12213
36.52 0.12213
36.525 0.12213
36.53 0.12213
36.535 0.12213
36.54 0.12213
36.545 0.12213
36.55 0.12213
36.555 0.12213
36.56 0.12213
36.565 0.12213
36.57 0.12213
36.575 0.12213
36.58 0.12213
36.585 0.12213
36.59 0.12213
36.595 0.12213
36.6 0.12213
36.605 0.12213
36.61 0.12213
36.615 0.12213
36.62 0.12213
36.625 0.12213
36.63 0.12213
36.635 0.12213
36.64 0.12213
36.645 0.12213
36.65 0.12213
36.655 0.12213
36.66 0.12213
36.665 0.12213
36.67 0.12213
36.675 0.12213
36.68 0.12213
36.685 0.12213
36.69 0.12213
36.695 0.12213
36.7 0.12213
36.705 0.12213
36.71 0.12213
36.715 0.12213
36.72 0.12213
36.725 0.12213
36.73 0.12213
36.735 0.12213
36.74 0.12213
36.745 0.12213
36.75 0.12213
36.755 0.12213
36.76 0.12213
36.765 0.12213
36.77 0.12213
36.775 0.12213
36.78 0.12213
36.785 0.12213
36.79 0.12213
36.795 0.12213
36.8 0.12213
36.805 0.12213
36.81 0.12213
36.815 0.12213
36.82 0.12213
36.825 0.12213
36.83 0.12213
36.835 0.12213
36.84 0.12213
36.845 0.12213
36.85 0.12213
36.855 0.12213
36.86 0.12213
36.865 0.12213
36.87 0.12213
36.875 0.12213
36.88 0.12213
36.885 0.12213
36.89 0.12213
36.895 0.12213
36.9 0.12213
36.905 0.12213
36.91 0.12213
36.915 0.12213
36.92 0.12213
36.925 0.12213
36.93 0.12213
36.935 0.12213
36.94 0.12213
36.945 0.12213
36.95 0.12213
36.955 0.12213
36.96 0.12213
36.965 0.12213
36.97 0.12213
36.975 0.12213
36.98 0.12213
36.985 0.12213
36.99 0.12213
36.995 0.12213
37 0.12213
37.005 0.12213
37.01 0.12213
37.015 0.12213
37.02 0.12213
37.025 0.12213
37.03 0.12213
37.035 0.12213
37.04 0.12213
37.045 0.12213
37.05 0.12213
37.055 0.12213
37.06 0.12213
37.065 0.12213
37.07 0.12213
37.075 0.12213
37.08 0.12213
37.085 0.12213
37.09 0.12213
37.095 0.12213
37.1 0.12213
37.105 0.12213
37.11 0.12213
37.115 0.12213
37.12 0.12213
37.125 0.12213
37.13 0.12213
37.135 0.12213
37.14 0.12213
37.145 0.12213
37.15 0.12213
37.155 0.12213
37.16 0.12213
37.165 0.12213
37.17 0.12213
37.175 0.12213
37.18 0.12213
37.185 0.12213
37.19 0.12213
37.195 0.12213
37.2 0.12213
37.205 0.12213
37.21 0.12213
37.215 0.12213
37.22 0.12213
37.225 0.12213
37.23 0.12213
37.235 0.12213
37.24 0.12213
37.245 0.12213
37.25 0.12213
37.255 0.12213
37.26 0.12213
37.265 0.12213
37.27 0.12213
37.275 0.12213
37.28 0.12213
37.285 0.12213
37.29 0.12213
37.295 0.12213
37.3 0.12213
37.305 0.12213
37.31 0.12213
37.315 0.12213
37.32 0.12213
37.325 0.12213
37.33 0.12213
37.335 0.12213
37.34 0.12213
37.345 0.12213
37.35 0.12213
37.355 0.12213
37.36 0.12213
37.365 0.12213
37.37 0.12213
37.375 0.12213
37.38 0.12213
37.385 0.12213
37.39 0.12213
37.395 0.12213
37.4 0.12213
37.405 0.12213
37.41 0.12213
37.415 0.12213
37.42 0.12213
37.425 0.12213
37.43 0.12213
37.435 0.12213
37.44 0.12213
37.445 0.12213
37.45 0.12213
37.455 0.12213
37.46 0.12213
37.465 0.12213
37.47 0.12213
37.475 0.12213
37.48 0.12213
37.485 0.12213
37.49 0.12213
37.495 0.12213
37.5 0.12213
37.505 0.12213
37.51 0.12213
37.515 0.12213
37.52 0.12213
37.525 0.12213
37.53 0.12213
37.535 0.12213
37.54 0.12213
37.545 0.12213
37.55 0.12213
37.555 0.12213
37.56 0.12213
37.565 0.12213
37.57 0.12213
37.575 0.12213
37.58 0.12213
37.585 0.12213
37.59 0.12213
37.595 0.12213
37.6 0.12213
37.605 0.12213
37.61 0.12213
37.615 0.12213
37.62 0.12213
37.625 0.12213
37.63 0.12213
37.635 0.12213
37.64 0.12213
37.645 0.12213
37.65 0.12213
37.655 0.12213
37.66 0.12213
37.665 0.12213
37.67 0.12213
37.675 0.12213
37.68 0.12213
37.685 0.12213
37.69 0.12213
37.695 0.12213
37.7 0.12213
37.705 0.12213
37.71 0.12213
37.715 0.12213
37.72 0.12213
37.725 0.12213
37.73 0.12213
37.735 0.12213
37.74 0.12213
37.745 0.12213
37.75 0.12213
37.755 0.12213
37.76 0.12213
37.765 0.12213
37.77 0.12213
37.775 0.12213
37.78 0.12213
37.785 0.12213
37.79 0.12213
37.795 0.12213
37.8 0.12213
37.805 0.12213
37.81 0.12213
37.815 0.12213
37.82 0.12213
37.825 0.12213
37.83 0.12213
37.835 0.12213
37.84 0.12213
37.845 0.12213
37.85 0.12213
37.855 0.12213
37.86 0.12213
37.865 0.12213
37.87 0.12213
37.875 0.12213
37.88 0.12213
37.885 0.12213
37.89 0.12213
37.895 0.12213
37.9 0.12213
37.905 0.12213
37.91 0.12213
37.915 0.12213
37.92 0.12213
37.925 0.12213
37.93 0.12213
37.935 0.12213
37.94 0.12213
37.945 0.12213
37.95 0.12213
37.955 0.12213
37.96 0.12213
37.965 0.12213
37.97 0.12213
37.975 0.12213
37.98 0.12213
37.985 0.12213
37.99 0.12213
37.995 0.12213
38 0.12213
38.005 0.12213
38.01 0.12213
38.015 0.12213
38.02 0.12213
38.025 0.12213
38.03 0.12213
38.035 0.12213
38.04 0.12213
38.045 0.12213
38.05 0.12213
38.055 0.12213
38.06 0.12213
38.065 0.12213
38.07 0.12213
38.075 0.12213
38.08 0.12213
38.085 0.12213
38.09 0.12213
38.095 0.12213
38.1 0.12213
38.105 0.12213
38.11 0.12213
38.115 0.12213
38.12 0.12213
38.125 0.12213
38.13 0.12213
38.135 0.12213
38.14 0.12213
38.145 0.12213
38.15 0.12213
38.155 0.12213
38.16 0.12213
38.165 0.12213
38.17 0.12213
38.175 0.12213
38.18 0.12213
38.185 0.12213
38.19 0.12213
38.195 0.12213
38.2 0.12213
38.205 0.12213
38.21 0.12213
38.215 0.12213
38.22 0.12213
38.225 0.12213
38.23 0.12213
38.235 0.12213
38.24 0.12213
38.245 0.12213
38.25 0.12213
38.255 0.12213
38.26 0.12213
38.265 0.12213
38.27 0.12213
38.275 0.12213
38.28 0.12213
38.285 0.12213
38.29 0.12213
38.295 0.12213
38.3 0.12213
38.305 0.12213
38.31 0.12213
38.315 0.12213
38.32 0.12213
38.325 0.12213
38.33 0.12213
38.335 0.12213
38.34 0.12213
38.345 0.12213
38.35 0.12213
38.355 0.12213
38.36 0.12213
38.365 0.12213
38.37 0.12213
38.375 0.12213
38.38 0.12213
38.385 0.12213
38.39 0.12213
38.395 0.12213
38.4 0.12213
38.405 0.12213
38.41 0.12213
38.415 0.12213
38.42 0.12213
38.425 0.12213
38.43 0.12213
38.435 0.12213
38.44 0.12213
38.445 0.12213
38.45 0.12213
38.455 0.12213
38.46 0.12213
38.465 0.12213
38.47 0.12213
38.475 0.12213
38.48 0.12213
38.485 0.12213
38.49 0.12213
38.495 0.12213
38.5 0.12213
38.505 0.12213
38.51 0.12213
38.515 0.12213
38.52 0.12213
38.525 0.12213
38.53 0.12213
38.535 0.12213
38.54 0.12213
38.545 0.12213
38.55 0.12213
38.555 0.12213
38.56 0.12213
38.565 0.12213
38.57 0.12213
38.575 0.12213
38.58 0.12213
38.585 0.12213
38.59 0.12213
38.595 0.12213
38.6 0.12213
38.605 0.12213
38.61 0.12213
38.615 0.12213
38.62 0.12213
38.625 0.12213
38.63 0.12213
38.635 0.12213
38.64 0.12213
38.645 0.12213
38.65 0.12213
38.655 0.12213
38.66 0.12213
38.665 0.12213
38.67 0.12213
38.675 0.12213
38.68 0.12213
38.685 0.12213
38.69 0.12213
38.695 0.12213
38.7 0.12213
38.705 0.12213
38.71 0.12213
38.715 0.12213
38.72 0.12213
38.725 0.12213
38.73 0.12213
38.735 0.12213
38.74 0.12213
38.745 0.12213
38.75 0.12213
38.755 0.12213
38.76 0.12213
38.765 0.12213
38.77 0.12213
38.775 0.12213
38.78 0.12213
38.785 0.12213
38.79 0.12213
38.795 0.12213
38.8 0.12213
38.805 0.12213
38.81 0.12213
38.815 0.12213
38.82 0.12213
38.825 0.12213
38.83 0.12213
38.835 0.12213
38.84 0.12213
38.845 0.12213
38.85 0.12213
38.855 0.12213
38.86 0.12213
38.865 0.12213
38.87 0.12213
38.875 0.12213
38.88 0.12213
38.885 0.12213
38.89 0.12213
38.895 0.12213
38.9 0.12213
38.905 0.12213
38.91 0.12213
38.915 0.12213
38.92 0.12213
38.925 0.12213
38.93 0.12213
38.935 0.12213
38.94 0.12213
38.945 0.12213
38.95 0.12213
38.955 0.12213
38.96 0.12213
38.965 0.12213
38.97 0.12213
38.975 0.12213
38.98 0.12213
38.985 0.12213
38.99 0.12213
38.995 0.12213
39 0.12213
39.005 0.12213
39.01 0.12213
39.015 0.12213
39.02 0.12213
39.025 0.12213
39.03 0.12213
39.035 0.12213
39.04 0.12213
39.045 0.12213
39.05 0.12213
39.055 0.12213
39.06 0.12213
39.065 0.12213
39.07 0.12213
39.075 0.12213
39.08 0.12213
39.085 0.12213
39.09 0.12213
39.095 0.12213
39.1 0.12213
39.105 0.12213
39.11 0.12213
39.115 0.12213
39.12 0.12213
39.125 0.12213
39.13 0.12213
39.135 0.12213
39.14 0.12213
39.145 0.12213
39.15 0.12213
39.155 0.12213
39.16 0.12213
39.165 0.12213
39.17 0.12213
39.175 0.12213
39.18 0.12213
39.185 0.12213
39.19 0.12213
39.195 0.12213
39.2 0.12213
39.205 0.12213
39.21 0.12213
39.215 0.12213
39.22 0.12213
39.225 0.12213
39.23 0.12213
39.235 0.12213
39.24 0.12213
39.245 0.12213
39.25 0.12213
39.255 0.12213
39.26 0.12213
39.265 0.12213
39.27 0.12213
39.275 0.12213
39.28 0.12213
39.285 0.12213
39.29 0.12213
39.295 0.12213
39.3 0.12213
39.305 0.12213
39.31 0.12213
39.315 0.12213
39.32 0.12213
39.325 0.12213
39.33 0.12213
39.335 0.12213
39.34 0.12213
39.345 0.12213
39.35 0.12213
39.355 0.12213
39.36 0.12213
39.365 0.12213
39.37 0.12213
39.375 0.12213
39.38 0.12213
39.385 0.12213
39.39 0.12213
39.395 0.12213
39.4 0.12213
39.405 0.12213
39.41 0.12213
39.415 0.12213
39.42 0.12213
39.425 0.12213
39.43 0.12213
39.435 0.12213
39.44 0.12213
39.445 0.12213
39.45 0.12213
39.455 0.12213
39.46 0.12213
39.465 0.12213
39.47 0.12213
39.475 0.12213
39.48 0.12213
39.485 0.12213
39.49 0.12213
39.495 0.12213
39.5 0.12213
39.505 0.12213
39.51 0.12213
39.515 0.12213
39.52 0.12213
39.525 0.12213
39.53 0.12213
39.535 0.12213
39.54 0.12213
39.545 0.12213
39.55 0.12213
39.555 0.12213
39.56 0.12213
39.565 0.12213
39.57 0.12213
39.575 0.12213
39.58 0.12213
39.585 0.12213
39.59 0.12213
39.595 0.12213
39.6 0.12213
39.605 0.12213
39.61 0.12213
39.615 0.12213
39.62 0.12213
39.625 0.12213
39.63 0.12213
39.635 0.12213
39.64 0.12213
39.645 0.12213
39.65 0.12213
39.655 0.12213
39.66 0.12213
39.665 0.12213
39.67 0.12213
39.675 0.12213
39.68 0.12213
39.685 0.12213
39.69 0.12213
39.695 0.12213
39.7 0.12213
39.705 0.12213
39.71 0.12213
39.715 0.12213
39.72 0.12213
39.725 0.12213
39.73 0.12213
39.735 0.12213
39.74 0.12213
39.745 0.12213
39.75 0.12213
39.755 0.12213
39.76 0.12213
39.765 0.12213
39.77 0.12213
39.775 0.12213
39.78 0.12213
39.785 0.12213
39.79 0.12213
39.795 0.12213
39.8 0.12213
39.805 0.12213
39.81 0.12213
39.815 0.12213
39.82 0.12213
39.825 0.12213
39.83 0.12213
39.835 0.12213
39.84 0.12213
39.845 0.12213
39.85 0.12213
39.855 0.12213
39.86 0.12213
39.865 0.12213
39.87 0.12213
39.875 0.12213
39.88 0.12213
39.885 0.12213
39.89 0.12213
39.895 0.12213
39.9 0.12213
39.905 0.12213
39.91 0.12213
39.915 0.12213
39.92 0.12213
39.925 0.12213
39.93 0.12213
39.935 0.12213
39.94 0.12213
39.945 0.12213
39.95 0.12213
39.955 0.12213
39.96 0.12213
39.965 0.12213
39.97 0.12213
39.975 0.12213
39.98 0.12213
39.985 0.12213
39.99 0.12213
39.995 0.12213
40 0.12213
40.005 0.12213
40.01 0.12213
40.015 0.12213
40.02 0.12213
40.025 0.12213
40.03 0.12213
40.035 0.12213
40.04 0.12213
40.045 0.12213
40.05 0.12213
40.055 0.12213
40.06 0.12213
40.065 0.12213
40.07 0.12213
40.075 0.12213
40.08 0.12213
40.085 0.12213
40.09 0.12213
40.095 0.12213
40.1 0.12213
40.105 0.12213
40.11 0.12213
40.115 0.12213
40.12 0.12213
40.125 0.12213
40.13 0.12213
40.135 0.12213
40.14 0.12213
40.145 0.12213
40.15 0.12213
40.155 0.12213
40.16 0.12213
40.165 0.12213
40.17 0.12213
40.175 0.12213
40.18 0.12213
40.185 0.12213
40.19 0.12213
40.195 0.12213
40.2 0.12213
40.205 0.12213
40.21 0.12213
40.215 0.12213
40.22 0.12213
40.225 0.12213
40.23 0.12213
40.235 0.12213
40.24 0.12213
40.245 0.12213
40.25 0.12213
40.255 0.12213
40.26 0.12213
40.265 0.12213
40.27 0.12213
40.275 0.12213
40.28 0.12213
40.285 0.12213
40.29 0.12213
40.295 0.12213
40.3 0.12213
40.305 0.12213
40.31 0.12213
40.315 0.12213
40.32 0.12213
40.325 0.12213
40.33 0.12213
40.335 0.12213
40.34 0.12213
40.345 0.12213
40.35 0.12213
40.355 0.12213
40.36 0.12213
40.365 0.12213
40.37 0.12213
40.375 0.12213
40.38 0.12213
40.385 0.12213
40.39 0.12213
40.395 0.12213
40.4 0.12213
40.405 0.12213
40.41 0.12213
40.415 0.12213
40.42 0.12213
40.425 0.12213
40.43 0.12213
40.435 0.12213
40.44 0.12213
40.445 0.12213
40.45 0.12213
40.455 0.12213
40.46 0.12213
40.465 0.12213
40.47 0.12213
40.475 0.12213
40.48 0.12213
40.485 0.12213
40.49 0.12213
40.495 0.12213
40.5 0.12213
40.505 0.12213
40.51 0.12213
40.515 0.12213
40.52 0.12213
40.525 0.12213
40.53 0.12213
40.535 0.12213
40.54 0.12213
40.545 0.12213
40.55 0.12213
40.555 0.12213
40.56 0.12213
40.565 0.12213
40.57 0.12213
40.575 0.12213
40.58 0.12213
40.585 0.12213
40.59 0.12213
40.595 0.12213
40.6 0.12213
40.605 0.12213
40.61 0.12213
40.615 0.12213
40.62 0.12213
40.625 0.12213
40.63 0.12213
40.635 0.12213
40.64 0.12213
40.645 0.12213
40.65 0.12213
40.655 0.12213
40.66 0.12213
40.665 0.12213
40.67 0.12213
40.675 0.12213
40.68 0.12213
40.685 0.12213
40.69 0.12213
40.695 0.12213
40.7 0.12213
40.705 0.12213
40.71 0.12213
40.715 0.12213
40.72 0.12213
40.725 0.12213
40.73 0.12213
40.735 0.12213
40.74 0.12213
40.745 0.12213
40.75 0.12213
40.755 0.12213
40.76 0.12213
40.765 0.12213
40.77 0.12213
40.775 0.12213
40.78 0.12213
40.785 0.12213
40.79 0.12213
40.795 0.12213
40.8 0.12213
40.805 0.12213
40.81 0.12213
40.815 0.12213
40.82 0.12213
40.825 0.12213
40.83 0.12213
40.835 0.12213
40.84 0.12213
40.845 0.12213
40.85 0.12213
40.855 0.12213
40.86 0.12213
40.865 0.12213
40.87 0.12213
40.875 0.12213
40.88 0.12213
40.885 0.12213
40.89 0.12213
40.895 0.12213
40.9 0.12213
40.905 0.12213
40.91 0.12213
40.915 0.12213
40.92 0.12213
40.925 0.12213
40.93 0.12213
40.935 0.12213
40.94 0.12213
40.945 0.12213
40.95 0.12213
40.955 0.12213
40.96 0.12213
40.965 0.12213
40.97 0.12213
40.975 0.12213
40.98 0.12213
40.985 0.12213
40.99 0.12213
40.995 0.12213
41 0.12213
41.005 0.12213
41.01 0.12213
41.015 0.12213
41.02 0.12213
41.025 0.12213
41.03 0.12213
41.035 0.12213
41.04 0.12213
41.045 0.12213
41.05 0.12213
41.055 0.12213
41.06 0.12213
41.065 0.12213
41.07 0.12213
41.075 0.12213
41.08 0.12213
41.085 0.12213
41.09 0.12213
41.095 0.12213
41.1 0.12213
41.105 0.12213
41.11 0.12213
41.115 0.12213
41.12 0.12213
41.125 0.12213
41.13 0.12213
41.135 0.12213
41.14 0.12213
41.145 0.12213
41.15 0.12213
41.155 0.12213
41.16 0.12213
41.165 0.12213
41.17 0.12213
41.175 0.12213
41.18 0.12213
41.185 0.12213
41.19 0.12213
41.195 0.12213
41.2 0.12213
41.205 0.12213
41.21 0.12213
41.215 0.12213
41.22 0.12213
41.225 0.12213
41.23 0.12213
41.235 0.12213
41.24 0.12213
41.245 0.12213
41.25 0.12213
41.255 0.12213
41.26 0.12213
41.265 0.12213
41.27 0.12213
41.275 0.12213
41.28 0.12213
41.285 0.12213
41.29 0.12213
41.295 0.12213
41.3 0.12213
41.305 0.12213
41.31 0.12213
41.315 0.12213
41.32 0.12213
41.325 0.12213
41.33 0.12213
41.335 0.12213
41.34 0.12213
41.345 0.12213
41.35 0.12213
41.355 0.12213
41.36 0.12213
41.365 0.12213
41.37 0.12213
41.375 0.12213
41.38 0.12213
41.385 0.12213
41.39 0.12213
41.395 0.12213
41.4 0.12213
41.405 0.12213
41.41 0.12213
41.415 0.12213
41.42 0.12213
41.425 0.12213
41.43 0.12213
41.435 0.12213
41.44 0.12213
41.445 0.12213
41.45 0.12213
41.455 0.12213
41.46 0.12213
41.465 0.12213
41.47 0.12213
41.475 0.12213
41.48 0.12213
41.485 0.12213
41.49 0.12213
41.495 0.12213
41.5 0.12213
41.505 0.12213
41.51 0.12213
41.515 0.12213
41.52 0.12213
41.525 0.12213
41.53 0.12213
41.535 0.12213
41.54 0.12213
41.545 0.12213
41.55 0.12213
41.555 0.12213
41.56 0.12213
41.565 0.12213
41.57 0.12213
41.575 0.12213
41.58 0.12213
41.585 0.12213
41.59 0.12213
41.595 0.12213
41.6 0.12213
41.605 0.12213
41.61 0.12213
41.615 0.12213
41.62 0.12213
41.625 0.12213
41.63 0.12213
41.635 0.12213
41.64 0.12213
41.645 0.12213
41.65 0.12213
41.655 0.12213
41.66 0.12213
41.665 0.12213
41.67 0.12213
41.675 0.12213
41.68 0.12213
41.685 0.12213
41.69 0.12213
41.695 0.12213
41.7 0.12213
41.705 0.12213
41.71 0.12213
41.715 0.12213
41.72 0.12213
41.725 0.12213
41.73 0.12213
41.735 0.12213
41.74 0.12213
41.745 0.12213
41.75 0.12213
41.755 0.12213
41.76 0.12213
41.765 0.12213
41.77 0.12213
41.775 0.12213
41.78 0.12213
41.785 0.12213
41.79 0.12213
41.795 0.12213
41.8 0.12213
41.805 0.12213
41.81 0.12213
41.815 0.12213
41.82 0.12213
41.825 0.12213
41.83 0.12213
41.835 0.12213
41.84 0.12213
41.845 0.12213
41.85 0.12213
41.855 0.12213
41.86 0.12213
41.865 0.12213
41.87 0.12213
41.875 0.12213
41.88 0.12213
41.885 0.12213
41.89 0.12213
41.895 0.12213
41.9 0.12213
41.905 0.12213
41.91 0.12213
41.915 0.12213
41.92 0.12213
41.925 0.12213
41.93 0.12213
41.935 0.12213
41.94 0.12213
41.945 0.12213
41.95 0.12213
41.955 0.12213
41.96 0.12213
41.965 0.12213
41.97 0.12213
41.975 0.12213
41.98 0.12213
41.985 0.12213
41.99 0.12213
41.995 0.12213
42 0.12213
42.005 0.12213
42.01 0.12213
42.015 0.12213
42.02 0.12213
42.025 0.12213
42.03 0.12213
42.035 0.12213
42.04 0.12213
42.045 0.12213
42.05 0.12213
42.055 0.12213
42.06 0.12213
42.065 0.12213
42.07 0.12213
42.075 0.12213
42.08 0.12213
42.085 0.12213
42.09 0.12213
42.095 0.12213
42.1 0.12213
42.105 0.12213
42.11 0.12213
42.115 0.12213
42.12 0.12213
42.125 0.12213
42.13 0.12213
42.135 0.12213
42.14 0.12213
42.145 0.12213
42.15 0.12213
42.155 0.12213
42.16 0.12213
42.165 0.12213
42.17 0.12213
42.175 0.12213
42.18 0.12213
42.185 0.12213
42.19 0.12213
42.195 0.12213
42.2 0.12213
42.205 0.12213
42.21 0.12213
42.215 0.12213
42.22 0.12213
42.225 0.12213
42.23 0.12213
42.235 0.12213
42.24 0.12213
42.245 0.12213
42.25 0.12213
42.255 0.12213
42.26 0.12213
42.265 0.12213
42.27 0.12213
42.275 0.12213
42.28 0.12213
42.285 0.12213
42.29 0.12213
42.295 0.12213
42.3 0.12213
42.305 0.12213
42.31 0.12213
42.315 0.12213
42.32 0.12213
42.325 0.12213
42.33 0.12213
42.335 0.12213
42.34 0.12213
42.345 0.12213
42.35 0.12213
42.355 0.12213
42.36 0.12213
42.365 0.12213
42.37 0.12213
42.375 0.12213
42.38 0.12213
42.385 0.12213
42.39 0.12213
42.395 0.12213
42.4 0.12213
42.405 0.12213
42.41 0.12213
42.415 0.12213
42.42 0.12213
42.425 0.12213
42.43 0.12213
42.435 0.12213
42.44 0.12213
42.445 0.12213
42.45 0.12213
42.455 0.12213
42.46 0.12213
42.465 0.12213
42.47 0.12213
42.475 0.12213
42.48 0.12213
42.485 0.12213
42.49 0.12213
42.495 0.12213
42.5 0.12213
42.505 0.12213
42.51 0.12213
42.515 0.12213
42.52 0.12213
42.525 0.12213
42.53 0.12213
42.535 0.12213
42.54 0.12213
42.545 0.12213
42.55 0.12213
42.555 0.12213
42.56 0.12213
42.565 0.12213
42.57 0.12213
42.575 0.12213
42.58 0.12213
42.585 0.12213
42.59 0.12213
42.595 0.12213
42.6 0.12213
42.605 0.12213
42.61 0.12213
42.615 0.12213
42.62 0.12213
42.625 0.12213
42.63 0.12213
42.635 0.12213
42.64 0.12213
42.645 0.12213
42.65 0.12213
42.655 0.12213
42.66 0.12213
42.665 0.12213
42.67 0.12213
42.675 0.12213
42.68 0.12213
42.685 0.12213
42.69 0.12213
42.695 0.12213
42.7 0.12213
42.705 0.12213
42.71 0.12213
42.715 0.12213
42.72 0.12213
42.725 0.12213
42.73 0.12213
42.735 0.12213
42.74 0.12213
42.745 0.12213
42.75 0.12213
42.755 0.12213
42.76 0.12213
42.765 0.12213
42.77 0.12213
42.775 0.12213
42.78 0.12213
42.785 0.12213
42.79 0.12213
42.795 0.12213
42.8 0.12213
42.805 0.12213
42.81 0.12213
42.815 0.12213
42.82 0.12213
42.825 0.12213
42.83 0.12213
42.835 0.12213
42.84 0.12213
42.845 0.12213
42.85 0.12213
42.855 0.12213
42.86 0.12213
42.865 0.12213
42.87 0.12213
42.875 0.12213
42.88 0.12213
42.885 0.12213
42.89 0.12213
42.895 0.12213
42.9 0.12213
42.905 0.12213
42.91 0.12213
42.915 0.12213
42.92 0.12213
42.925 0.12213
42.93 0.12213
42.935 0.12213
42.94 0.12213
42.945 0.12213
42.95 0.12213
42.955 0.12213
42.96 0.12213
42.965 0.12213
42.97 0.12213
42.975 0.12213
42.98 0.12213
42.985 0.12213
42.99 0.12213
42.995 0.12213
43 0.12213
43.005 0.12213
43.01 0.12213
43.015 0.12213
43.02 0.12213
43.025 0.12213
43.03 0.12213
43.035 0.12213
43.04 0.12213
43.045 0.12213
43.05 0.12213
43.055 0.12213
43.06 0.12213
43.065 0.12213
43.07 0.12213
43.075 0.12213
43.08 0.12213
43.085 0.12213
43.09 0.12213
43.095 0.12213
43.1 0.12213
43.105 0.12213
43.11 0.12213
43.115 0.12213
43.12 0.12213
43.125 0.12213
43.13 0.12213
43.135 0.12213
43.14 0.12213
43.145 0.12213
43.15 0.12213
43.155 0.12213
43.16 0.12213
43.165 0.12213
43.17 0.12213
43.175 0.12213
43.18 0.12213
43.185 0.12213
43.19 0.12213
43.195 0.12213
43.2 0.12213
43.205 0.12213
43.21 0.12213
43.215 0.12213
43.22 0.12213
43.225 0.12213
43.23 0.12213
43.235 0.12213
43.24 0.12213
43.245 0.12213
43.25 0.12213
43.255 0.12213
43.26 0.12213
43.265 0.12213
43.27 0.12213
43.275 0.12213
43.28 0.12213
43.285 0.12213
43.29 0.12213
43.295 0.12213
43.3 0.12213
43.305 0.12213
43.31 0.12213
43.315 0.12213
43.32 0.12213
43.325 0.12213
43.33 0.12213
43.335 0.12213
43.34 0.12213
43.345 0.12213
43.35 0.12213
43.355 0.12213
43.36 0.12213
43.365 0.12213
43.37 0.12213
43.375 0.12213
43.38 0.12213
43.385 0.12213
43.39 0.12213
43.395 0.12213
43.4 0.12213
43.405 0.12213
43.41 0.12213
43.415 0.12213
43.42 0.12213
43.425 0.12213
43.43 0.12213
43.435 0.12213
43.44 0.12213
43.445 0.12213
43.45 0.12213
43.455 0.12213
43.46 0.12213
43.465 0.12213
43.47 0.12213
43.475 0.12213
43.48 0.12213
43.485 0.12213
43.49 0.12213
43.495 0.12213
43.5 0.12213
43.505 0.12213
43.51 0.12213
43.515 0.12213
43.52 0.12213
43.525 0.12213
43.53 0.12213
43.535 0.12213
43.54 0.12213
43.545 0.12213
43.55 0.12213
43.555 0.12213
43.56 0.12213
43.565 0.12213
43.57 0.12213
43.575 0.12213
43.58 0.12213
43.585 0.12213
43.59 0.12213
43.595 0.12213
43.6 0.12213
43.605 0.12213
43.61 0.12213
43.615 0.12213
43.62 0.12213
43.625 0.12213
43.63 0.12213
43.635 0.12213
43.64 0.12213
43.645 0.12213
43.65 0.12213
43.655 0.12213
43.66 0.12213
43.665 0.12213
43.67 0.12213
43.675 0.12213
43.68 0.12213
43.685 0.12213
43.69 0.12213
43.695 0.12213
43.7 0.12213
43.705 0.12213
43.71 0.12213
43.715 0.12213
43.72 0.12213
43.725 0.12213
43.73 0.12213
43.735 0.12213
43.74 0.12213
43.745 0.12213
43.75 0.12213
43.755 0.12213
43.76 0.12213
43.765 0.12213
43.77 0.12213
43.775 0.12213
43.78 0.12213
43.785 0.12213
43.79 0.12213
43.795 0.12213
43.8 0.12213
43.805 0.12213
43.81 0.12213
43.815 0.12213
43.82 0.12213
43.825 0.12213
43.83 0.12213
43.835 0.12213
43.84 0.12213
43.845 0.12213
43.85 0.12213
43.855 0.12213
43.86 0.12213
43.865 0.12213
43.87 0.12213
43.875 0.12213
43.88 0.12213
43.885 0.12213
43.89 0.12213
43.895 0.12213
43.9 0.12213
43.905 0.12213
43.91 0.12213
43.915 0.12213
43.92 0.12213
43.925 0.12213
43.93 0.12213
43.935 0.12213
43.94 0.12213
43.945 0.12213
43.95 0.12213
43.955 0.12213
43.96 0.12213
43.965 0.12213
43.97 0.12213
43.975 0.12213
43.98 0.12213
43.985 0.12213
43.99 0.12213
43.995 0.12213
44 0.12213
44.005 0.12213
44.01 0.12213
44.015 0.12213
44.02 0.12213
44.025 0.12213
44.03 0.12213
44.035 0.12213
44.04 0.12213
44.045 0.12213
44.05 0.12213
44.055 0.12213
44.06 0.12213
44.065 0.12213
44.07 0.12213
44.075 0.12213
44.08 0.12213
44.085 0.12213
44.09 0.12213
44.095 0.12213
44.1 0.12213
44.105 0.12213
44.11 0.12213
44.115 0.12213
44.12 0.12213
44.125 0.12213
44.13 0.12213
44.135 0.12213
44.14 0.12213
44.145 0.12213
44.15 0.12213
44.155 0.12213
44.16 0.12213
44.165 0.12213
44.17 0.12213
44.175 0.12213
44.18 0.12213
44.185 0.12213
44.19 0.12213
44.195 0.12213
44.2 0.12213
44.205 0.12213
44.21 0.12213
44.215 0.12213
44.22 0.12213
44.225 0.12213
44.23 0.12213
44.235 0.12213
44.24 0.12213
44.245 0.12213
44.25 0.12213
44.255 0.12213
44.26 0.12213
44.265 0.12213
44.27 0.12213
44.275 0.12213
44.28 0.12213
44.285 0.12213
44.29 0.12213
44.295 0.12213
44.3 0.12213
44.305 0.12213
44.31 0.12213
44.315 0.12213
44.32 0.12213
44.325 0.12213
44.33 0.12213
44.335 0.12213
44.34 0.12213
44.345 0.12213
44.35 0.12213
44.355 0.12213
44.36 0.12213
44.365 0.12213
44.37 0.12213
44.375 0.12213
44.38 0.12213
44.385 0.12213
44.39 0.12213
44.395 0.12213
44.4 0.12213
44.405 0.12213
44.41 0.12213
44.415 0.12213
44.42 0.12213
44.425 0.12213
44.43 0.12213
44.435 0.12213
44.44 0.12213
44.445 0.12213
44.45 0.12213
44.455 0.12213
44.46 0.12213
44.465 0.12213
44.47 0.12213
44.475 0.12213
44.48 0.12213
44.485 0.12213
44.49 0.12213
44.495 0.12213
44.5 0.12213
44.505 0.12213
44.51 0.12213
44.515 0.12213
44.52 0.12213
44.525 0.12213
44.53 0.12213
44.535 0.12213
44.54 0.12213
44.545 0.12213
44.55 0.12213
44.555 0.12213
44.56 0.12213
44.565 0.12213
44.57 0.12213
44.575 0.12213
44.58 0.12213
44.585 0.12213
44.59 0.12213
44.595 0.12213
44.6 0.12213
44.605 0.12213
44.61 0.12213
44.615 0.12213
44.62 0.12213
44.625 0.12213
44.63 0.12213
44.635 0.12213
44.64 0.12213
44.645 0.12213
44.65 0.12213
44.655 0.12213
44.66 0.12213
44.665 0.12213
44.67 0.12213
44.675 0.12213
44.68 0.12213
44.685 0.12213
44.69 0.12213
44.695 0.12213
44.7 0.12213
44.705 0.12213
44.71 0.12213
44.715 0.12213
44.72 0.12213
44.725 0.12213
44.73 0.12213
44.735 0.12213
44.74 0.12213
44.745 0.12213
44.75 0.12213
44.755 0.12213
44.76 0.12213
44.765 0.12213
44.77 0.12213
44.775 0.12213
44.78 0.12213
44.785 0.12213
44.79 0.12213
44.795 0.12213
44.8 0.12213
44.805 0.12213
44.81 0.12213
44.815 0.12213
44.82 0.12213
44.825 0.12213
44.83 0.12213
44.835 0.12213
44.84 0.12213
44.845 0.12213
44.85 0.12213
44.855 0.12213
44.86 0.12213
44.865 0.12213
44.87 0.12213
44.875 0.12213
44.88 0.12213
44.885 0.12213
44.89 0.12213
44.895 0.12213
44.9 0.12213
44.905 0.12213
44.91 0.12213
44.915 0.12213
44.92 0.12213
44.925 0.12213
44.93 0.12213
44.935 0.12213
44.94 0.12213
44.945 0.12213
44.95 0.12213
44.955 0.12213
44.96 0.12213
44.965 0.12213
44.97 0.12213
44.975 0.12213
44.98 0.12213
44.985 0.12213
44.99 0.12213
44.995 0.12213
45 0.12213
45.005 0.12213
45.01 0.12213
45.015 0.12213
45.02 0.12213
45.025 0.12213
45.03 0.12213
45.035 0.12213
45.04 0.12213
45.045 0.12213
45.05 0.12213
45.055 0.12213
45.06 0.12213
45.065 0.12213
45.07 0.12213
45.075 0.12213
45.08 0.12213
45.085 0.12213
45.09 0.12213
45.095 0.12213
45.1 0.12213
45.105 0.12213
45.11 0.12213
45.115 0.12213
45.12 0.12213
45.125 0.12213
45.13 0.12213
45.135 0.12213
45.14 0.12213
45.145 0.12213
45.15 0.12213
45.155 0.12213
45.16 0.12213
45.165 0.12213
45.17 0.12213
45.175 0.12213
45.18 0.12213
45.185 0.12213
45.19 0.12213
45.195 0.12213
45.2 0.12213
45.205 0.12213
45.21 0.12213
45.215 0.12213
45.22 0.12213
45.225 0.12213
45.23 0.12213
45.235 0.12213
45.24 0.12213
45.245 0.12213
45.25 0.12213
45.255 0.12213
45.26 0.12213
45.265 0.12213
45.27 0.12213
45.275 0.12213
45.28 0.12213
45.285 0.12213
45.29 0.12213
45.295 0.12213
45.3 0.12213
45.305 0.12213
45.31 0.12213
45.315 0.12213
45.32 0.12213
45.325 0.12213
45.33 0.12213
45.335 0.12213
45.34 0.12213
45.345 0.12213
45.35 0.12213
45.355 0.12213
45.36 0.12213
45.365 0.12213
45.37 0.12213
45.375 0.12213
45.38 0.12213
45.385 0.12213
45.39 0.12213
45.395 0.12213
45.4 0.12213
45.405 0.12213
45.41 0.12213
45.415 0.12213
45.42 0.12213
45.425 0.12213
45.43 0.12213
45.435 0.12213
45.44 0.12213
45.445 0.12213
45.45 0.12213
45.455 0.12213
45.46 0.12213
45.465 0.12213
45.47 0.12213
45.475 0.12213
45.48 0.12213
45.485 0.12213
45.49 0.12213
45.495 0.12213
45.5 0.12213
45.505 0.12213
45.51 0.12213
45.515 0.12213
45.52 0.12213
45.525 0.12213
45.53 0.12213
45.535 0.12213
45.54 0.12213
45.545 0.12213
45.55 0.12213
45.555 0.12213
45.56 0.12213
45.565 0.12213
45.57 0.12213
45.575 0.12213
45.58 0.12213
45.585 0.12213
45.59 0.12213
45.595 0.12213
45.6 0.12213
45.605 0.12213
45.61 0.12213
45.615 0.12213
45.62 0.12213
45.625 0.12213
45.63 0.12213
45.635 0.12213
45.64 0.12213
45.645 0.12213
45.65 0.12213
45.655 0.12213
45.66 0.12213
45.665 0.12213
45.67 0.12213
45.675 0.12213
45.68 0.12213
45.685 0.12213
45.69 0.12213
45.695 0.12213
45.7 0.12213
45.705 0.12213
45.71 0.12213
45.715 0.12213
45.72 0.12213
45.725 0.12213
45.73 0.12213
45.735 0.12213
45.74 0.12213
45.745 0.12213
45.75 0.12213
45.755 0.12213
45.76 0.12213
45.765 0.12213
45.77 0.12213
45.775 0.12213
45.78 0.12213
45.785 0.12213
45.79 0.12213
45.795 0.12213
45.8 0.12213
45.805 0.12213
45.81 0.12213
45.815 0.12213
45.82 0.12213
45.825 0.12213
45.83 0.12213
45.835 0.12213
45.84 0.12213
45.845 0.12213
45.85 0.12213
45.855 0.12213
45.86 0.12213
45.865 0.12213
45.87 0.12213
45.875 0.12213
45.88 0.12213
45.885 0.12213
45.89 0.12213
45.895 0.12213
45.9 0.12213
45.905 0.12213
45.91 0.12213
45.915 0.12213
45.92 0.12213
45.925 0.12213
45.93 0.12213
45.935 0.12213
45.94 0.12213
45.945 0.12213
45.95 0.12213
45.955 0.12213
45.96 0.12213
45.965 0.12213
45.97 0.12213
45.975 0.12213
45.98 0.12213
45.985 0.12213
45.99 0.12213
45.995 0.12213
46 0.12213
46.005 0.12213
46.01 0.12213
46.015 0.12213
46.02 0.12213
46.025 0.12213
46.03 0.12213
46.035 0.12213
46.04 0.12213
46.045 0.12213
46.05 0.12213
46.055 0.12213
46.06 0.12213
46.065 0.12213
46.07 0.12213
46.075 0.12213
46.08 0.12213
46.085 0.12213
46.09 0.12213
46.095 0.12213
46.1 0.12213
46.105 0.12213
46.11 0.12213
46.115 0.12213
46.12 0.12213
46.125 0.12213
46.13 0.12213
46.135 0.12213
46.14 0.12213
46.145 0.12213
46.15 0.12213
46.155 0.12213
46.16 0.12213
46.165 0.12213
46.17 0.12213
46.175 0.12213
46.18 0.12213
46.185 0.12213
46.19 0.12213
46.195 0.12213
46.2 0.12213
46.205 0.12213
46.21 0.12213
46.215 0.12213
46.22 0.12213
46.225 0.12213
46.23 0.12213
46.235 0.12213
46.24 0.12213
46.245 0.12213
46.25 0.12213
46.255 0.12213
46.26 0.12213
46.265 0.12213
46.27 0.12213
46.275 0.12213
46.28 0.12213
46.285 0.12213
46.29 0.12213
46.295 0.12213
46.3 0.12213
46.305 0.12213
46.31 0.12213
46.315 0.12213
46.32 0.12213
46.325 0.12213
46.33 0.12213
46.335 0.12213
46.34 0.12213
46.345 0.12213
46.35 0.12213
46.355 0.12213
46.36 0.12213
46.365 0.12213
46.37 0.12213
46.375 0.12213
46.38 0.12213
46.385 0.12213
46.39 0.12213
46.395 0.12213
46.4 0.12213
46.405 0.12213
46.41 0.12213
46.415 0.12213
46.42 0.12213
46.425 0.12213
46.43 0.12213
46.435 0.12213
46.44 0.12213
46.445 0.12213
46.45 0.12213
46.455 0.12213
46.46 0.12213
46.465 0.12213
46.47 0.12213
46.475 0.12213
46.48 0.12213
46.485 0.12213
46.49 0.12213
46.495 0.12213
46.5 0.12213
46.505 0.12213
46.51 0.12213
46.515 0.12213
46.52 0.12213
46.525 0.12213
46.53 0.12213
46.535 0.12213
46.54 0.12213
46.545 0.12213
46.55 0.12213
46.555 0.12213
46.56 0.12213
46.565 0.12213
46.57 0.12213
46.575 0.12213
46.58 0.12213
46.585 0.12213
46.59 0.12213
46.595 0.12213
46.6 0.12213
46.605 0.12213
46.61 0.12213
46.615 0.12213
46.62 0.12213
46.625 0.12213
46.63 0.12213
46.635 0.12213
46.64 0.12213
46.645 0.12213
46.65 0.12213
46.655 0.12213
46.66 0.12213
46.665 0.12213
46.67 0.12213
46.675 0.12213
46.68 0.12213
46.685 0.12213
46.69 0.12213
46.695 0.12213
46.7 0.12213
46.705 0.12213
46.71 0.12213
46.715 0.12213
46.72 0.12213
46.725 0.12213
46.73 0.12213
46.735 0.12213
46.74 0.12213
46.745 0.12213
46.75 0.12213
46.755 0.12213
46.76 0.12213
46.765 0.12213
46.77 0.12213
46.775 0.12213
46.78 0.12213
46.785 0.12213
46.79 0.12213
46.795 0.12213
46.8 0.12213
46.805 0.12213
46.81 0.12213
46.815 0.12213
46.82 0.12213
46.825 0.12213
46.83 0.12213
46.835 0.12213
46.84 0.12213
46.845 0.12213
46.85 0.12213
46.855 0.12213
46.86 0.12213
46.865 0.12213
46.87 0.12213
46.875 0.12213
46.88 0.12213
46.885 0.12213
46.89 0.12213
46.895 0.12213
46.9 0.12213
46.905 0.12213
46.91 0.12213
46.915 0.12213
46.92 0.12213
46.925 0.12213
46.93 0.12213
46.935 0.12213
46.94 0.12213
46.945 0.12213
46.95 0.12213
46.955 0.12213
46.96 0.12213
46.965 0.12213
46.97 0.12213
46.975 0.12213
46.98 0.12213
46.985 0.12213
46.99 0.12213
46.995 0.12213
47 0.12213
47.005 0.12213
47.01 0.12213
47.015 0.12213
47.02 0.12213
47.025 0.12213
47.03 0.12213
47.035 0.12213
47.04 0.12213
47.045 0.12213
47.05 0.12213
47.055 0.12213
47.06 0.12213
47.065 0.12213
47.07 0.12213
47.075 0.12213
47.08 0.12213
47.085 0.12213
47.09 0.12213
47.095 0.12213
47.1 0.12213
47.105 0.12213
47.11 0.12213
47.115 0.12213
47.12 0.12213
47.125 0.12213
47.13 0.12213
47.135 0.12213
47.14 0.12213
47.145 0.12213
47.15 0.12213
47.155 0.12213
47.16 0.12213
47.165 0.12213
47.17 0.12213
47.175 0.12213
47.18 0.12213
47.185 0.12213
47.19 0.12213
47.195 0.12213
47.2 0.12213
47.205 0.12213
47.21 0.12213
47.215 0.12213
47.22 0.12213
47.225 0.12213
47.23 0.12213
47.235 0.12213
47.24 0.12213
47.245 0.12213
47.25 0.12213
47.255 0.12213
47.26 0.12213
47.265 0.12213
47.27 0.12213
47.275 0.12213
47.28 0.12213
47.285 0.12213
47.29 0.12213
47.295 0.12213
47.3 0.12213
47.305 0.12213
47.31 0.12213
47.315 0.12213
47.32 0.12213
47.325 0.12213
47.33 0.12213
47.335 0.12213
47.34 0.12213
47.345 0.12213
47.35 0.12213
47.355 0.12213
47.36 0.12213
47.365 0.12213
47.37 0.12213
47.375 0.12213
47.38 0.12213
47.385 0.12213
47.39 0.12213
47.395 0.12213
47.4 0.12213
47.405 0.12213
47.41 0.12213
47.415 0.12213
47.42 0.12213
47.425 0.12213
47.43 0.12213
47.435 0.12213
47.44 0.12213
47.445 0.12213
47.45 0.12213
47.455 0.12213
47.46 0.12213
47.465 0.12213
47.47 0.12213
47.475 0.12213
47.48 0.12213
47.485 0.12213
47.49 0.12213
47.495 0.12213
47.5 0.12213
47.505 0.12213
47.51 0.12213
47.515 0.12213
47.52 0.12213
47.525 0.12213
47.53 0.12213
47.535 0.12213
47.54 0.12213
47.545 0.12213
47.55 0.12213
47.555 0.12213
47.56 0.12213
47.565 0.12213
47.57 0.12213
47.575 0.12213
47.58 0.12213
47.585 0.12213
47.59 0.12213
47.595 0.12213
47.6 0.12213
47.605 0.12213
47.61 0.12213
47.615 0.12213
47.62 0.12213
47.625 0.12213
47.63 0.12213
47.635 0.12213
47.64 0.12213
47.645 0.12213
47.65 0.12213
47.655 0.12213
47.66 0.12213
47.665 0.12213
47.67 0.12213
47.675 0.12213
47.68 0.12213
47.685 0.12213
47.69 0.12213
47.695 0.12213
47.7 0.12213
47.705 0.12213
47.71 0.12213
47.715 0.12213
47.72 0.12213
47.725 0.12213
47.73 0.12213
47.735 0.12213
47.74 0.12213
47.745 0.12213
47.75 0.12213
47.755 0.12213
47.76 0.12213
47.765 0.12213
47.77 0.12213
47.775 0.12213
47.78 0.12213
47.785 0.12213
47.79 0.12213
47.795 0.12213
47.8 0.12213
47.805 0.12213
47.81 0.12213
47.815 0.12213
47.82 0.12213
47.825 0.12213
47.83 0.12213
47.835 0.12213
47.84 0.12213
47.845 0.12213
47.85 0.12213
47.855 0.12213
47.86 0.12213
47.865 0.12213
47.87 0.12213
47.875 0.12213
47.88 0.12213
47.885 0.12213
47.89 0.12213
47.895 0.12213
47.9 0.12213
47.905 0.12213
47.91 0.12213
47.915 0.12213
47.92 0.12213
47.925 0.12213
47.93 0.12213
47.935 0.12213
47.94 0.12213
47.945 0.12213
47.95 0.12213
47.955 0.12213
47.96 0.12213
47.965 0.12213
47.97 0.12213
47.975 0.12213
47.98 0.12213
47.985 0.12213
47.99 0.12213
47.995 0.12213
48 0.12213
48.005 0.12213
48.01 0.12213
48.015 0.12213
48.02 0.12213
48.025 0.12213
48.03 0.12213
48.035 0.12213
48.04 0.12213
48.045 0.12213
48.05 0.12213
48.055 0.12213
48.06 0.12213
48.065 0.12213
48.07 0.12213
48.075 0.12213
48.08 0.12213
48.085 0.12213
48.09 0.12213
48.095 0.12213
48.1 0.12213
48.105 0.12213
48.11 0.12213
48.115 0.12213
48.12 0.12213
48.125 0.12213
48.13 0.12213
48.135 0.12213
48.14 0.12213
48.145 0.12213
48.15 0.12213
48.155 0.12213
48.16 0.12213
48.165 0.12213
48.17 0.12213
48.175 0.12213
48.18 0.12213
48.185 0.12213
48.19 0.12213
48.195 0.12213
48.2 0.12213
48.205 0.12213
48.21 0.12213
48.215 0.12213
48.22 0.12213
48.225 0.12213
48.23 0.12213
48.235 0.12213
48.24 0.12213
48.245 0.12213
48.25 0.12213
48.255 0.12213
48.26 0.12213
48.265 0.12213
48.27 0.12213
48.275 0.12213
48.28 0.12213
48.285 0.12213
48.29 0.12213
48.295 0.12213
48.3 0.12213
48.305 0.12213
48.31 0.12213
48.315 0.12213
48.32 0.12213
48.325 0.12213
48.33 0.12213
48.335 0.12213
48.34 0.12213
48.345 0.12213
48.35 0.12213
48.355 0.12213
48.36 0.12213
48.365 0.12213
48.37 0.12213
48.375 0.12213
48.38 0.12213
48.385 0.12213
48.39 0.12213
48.395 0.12213
48.4 0.12213
48.405 0.12213
48.41 0.12213
48.415 0.12213
48.42 0.12213
48.425 0.12213
48.43 0.12213
48.435 0.12213
48.44 0.12213
48.445 0.12213
48.45 0.12213
48.455 0.12213
48.46 0.12213
48.465 0.12213
48.47 0.12213
48.475 0.12213
48.48 0.12213
48.485 0.12213
48.49 0.12213
48.495 0.12213
48.5 0.12213
48.505 0.12213
48.51 0.12213
48.515 0.12213
48.52 0.12213
48.525 0.12213
48.53 0.12213
48.535 0.12213
48.54 0.12213
48.545 0.12213
48.55 0.12213
48.555 0.12213
48.56 0.12213
48.565 0.12213
48.57 0.12213
48.575 0.12213
48.58 0.12213
48.585 0.12213
48.59 0.12213
48.595 0.12213
48.6 0.12213
48.605 0.12213
48.61 0.12213
48.615 0.12213
48.62 0.12213
48.625 0.12213
48.63 0.12213
48.635 0.12213
48.64 0.12213
48.645 0.12213
48.65 0.12213
48.655 0.12213
48.66 0.12213
48.665 0.12213
48.67 0.12213
48.675 0.12213
48.68 0.12213
48.685 0.12213
48.69 0.12213
48.695 0.12213
48.7 0.12213
48.705 0.12213
48.71 0.12213
48.715 0.12213
48.72 0.12213
48.725 0.12213
48.73 0.12213
48.735 0.12213
48.74 0.12213
48.745 0.12213
48.75 0.12213
48.755 0.12213
48.76 0.12213
48.765 0.12213
48.77 0.12213
48.775 0.12213
48.78 0.12213
48.785 0.12213
48.79 0.12213
48.795 0.12213
48.8 0.12213
48.805 0.12213
48.81 0.12213
48.815 0.12213
48.82 0.12213
48.825 0.12213
48.83 0.12213
48.835 0.12213
48.84 0.12213
48.845 0.12213
48.85 0.12213
48.855 0.12213
48.86 0.12213
48.865 0.12213
48.87 0.12213
48.875 0.12213
48.88 0.12213
48.885 0.12213
48.89 0.12213
48.895 0.12213
48.9 0.12213
48.905 0.12213
48.91 0.12213
48.915 0.12213
48.92 0.12213
48.925 0.12213
48.93 0.12213
48.935 0.12213
48.94 0.12213
48.945 0.12213
48.95 0.12213
48.955 0.12213
48.96 0.12213
48.965 0.12213
48.97 0.12213
48.975 0.12213
48.98 0.12213
48.985 0.12213
48.99 0.12213
48.995 0.12213
49 0.12213
49.005 0.12213
49.01 0.12213
49.015 0.12213
49.02 0.12213
49.025 0.12213
49.03 0.12213
49.035 0.12213
49.04 0.12213
49.045 0.12213
49.05 0.12213
49.055 0.12213
49.06 0.12213
49.065 0.12213
49.07 0.12213
49.075 0.12213
49.08 0.12213
49.085 0.12213
49.09 0.12213
49.095 0.12213
49.1 0.12213
49.105 0.12213
49.11 0.12213
49.115 0.12213
49.12 0.12213
49.125 0.12213
49.13 0.12213
49.135 0.12213
49.14 0.12213
49.145 0.12213
49.15 0.12213
49.155 0.12213
49.16 0.12213
49.165 0.12213
49.17 0.12213
49.175 0.12213
49.18 0.12213
49.185 0.12213
49.19 0.12213
49.195 0.12213
49.2 0.12213
49.205 0.12213
49.21 0.12213
49.215 0.12213
49.22 0.12213
49.225 0.12213
49.23 0.12213
49.235 0.12213
49.24 0.12213
49.245 0.12213
49.25 0.12213
49.255 0.12213
49.26 0.12213
49.265 0.12213
49.27 0.12213
49.275 0.12213
49.28 0.12213
49.285 0.12213
49.29 0.12213
49.295 0.12213
49.3 0.12213
49.305 0.12213
49.31 0.12213
49.315 0.12213
49.32 0.12213
49.325 0.12213
49.33 0.12213
49.335 0.12213
49.34 0.12213
49.345 0.12213
49.35 0.12213
49.355 0.12213
49.36 0.12213
49.365 0.12213
49.37 0.12213
49.375 0.12213
49.38 0.12213
49.385 0.12213
49.39 0.12213
49.395 0.12213
49.4 0.12213
49.405 0.12213
49.41 0.12213
49.415 0.12213
49.42 0.12213
49.425 0.12213
49.43 0.12213
49.435 0.12213
49.44 0.12213
49.445 0.12213
49.45 0.12213
49.455 0.12213
49.46 0.12213
49.465 0.12213
49.47 0.12213
49.475 0.12213
49.48 0.12213
49.485 0.12213
49.49 0.12213
49.495 0.12213
49.5 0.12213
49.505 0.12213
49.51 0.12213
49.515 0.12213
49.52 0.12213
49.525 0.12213
49.53 0.12213
49.535 0.12213
49.54 0.12213
49.545 0.12213
49.55 0.12213
49.555 0.12213
49.56 0.12213
49.565 0.12213
49.57 0.12213
49.575 0.12213
49.58 0.12213
49.585 0.12213
49.59 0.12213
49.595 0.12213
49.6 0.12213
49.605 0.12213
49.61 0.12213
49.615 0.12213
49.62 0.12213
49.625 0.12213
49.63 0.12213
49.635 0.12213
49.64 0.12213
49.645 0.12213
49.65 0.12213
49.655 0.12213
49.66 0.12213
49.665 0.12213
49.67 0.12213
49.675 0.12213
49.68 0.12213
49.685 0.12213
49.69 0.12213
49.695 0.12213
49.7 0.12213
49.705 0.12213
49.71 0.12213
49.715 0.12213
49.72 0.12213
49.725 0.12213
49.73 0.12213
49.735 0.12213
49.74 0.12213
49.745 0.12213
49.75 0.12213
49.755 0.12213
49.76 0.12213
49.765 0.12213
49.77 0.12213
49.775 0.12213
49.78 0.12213
49.785 0.12213
49.79 0.12213
49.795 0.12213
49.8 0.12213
49.805 0.12213
49.81 0.12213
49.815 0.12213
49.82 0.12213
49.825 0.12213
49.83 0.12213
49.835 0.12213
49.84 0.12213
49.845 0.12213
49.85 0.12213
49.855 0.12213
49.86 0.12213
49.865 0.12213
49.87 0.12213
49.875 0.12213
49.88 0.12213
49.885 0.12213
49.89 0.12213
49.895 0.12213
49.9 0.12213
49.905 0.12213
49.91 0.12213
49.915 0.12213
49.92 0.12213
49.925 0.12213
49.93 0.12213
49.935 0.12213
49.94 0.12213
49.945 0.12213
49.95 0.12213
49.955 0.12213
49.96 0.12213
49.965 0.12213
49.97 0.12213
49.975 0.12213
49.98 0.12213
49.985 0.12213
49.99 0.12213
49.995 0.12213
50 0.12213
